2022.09.19 19:37:17
Îáðàçåö: ß÷åéêà LCoV 16-09-2022
Lambda1 = 1.54060
Lambda2 = 1.54439
Lambdam = 1.54186
R = 0.497
2Theta	I

line¹ 0 ;repeat¹ 0
22.1120	533.99
22.1264	563.59
22.1409	537.65
22.1553	490.27
22.1697	553.25
22.1842	514.57
22.1986	448.95
22.2131	496.49
22.2275	571.64
22.2419	541.73
22.2564	538.30
22.2708	577.42
22.2853	596.91
22.2997	544.80
22.3141	554.43
22.3286	592.35
22.3430	578.51
22.3575	534.44
22.3719	549.86
22.3863	593.79
22.4008	516.12
22.4152	644.49
22.4297	650.61
22.4441	605.76
22.4585	558.99
22.4730	592.28
22.4874	676.03
22.5019	574.65
22.5163	590.56
22.5307	516.76
22.5452	552.43
22.5596	575.43
22.5741	580.19
22.5885	561.51
22.6029	585.67
22.6174	534.84
22.6318	537.86
22.6463	532.78
22.6607	536.69
22.6751	598.57
22.6896	495.49
22.7040	635.95
22.7185	536.75
22.7329	477.93
22.7473	526.12
22.7618	501.30
22.7762	508.97
22.7907	671.53
22.8051	647.63
22.8195	543.52
22.8340	547.71
22.8484	590.18
22.8629	728.69
22.8773	632.45
22.8917	578.02
22.9062	608.16
22.9206	529.21
22.9351	456.88
22.9495	593.88
22.9639	562.17
22.9784	577.62
22.9928	610.21
23.0073	521.93
23.0217	520.38
23.0361	544.38
23.0506	602.04
23.0650	599.51
23.0795	506.94
23.0939	536.77
23.1083	539.64
23.1228	553.70
23.1372	577.92
23.1517	508.73
23.1661	587.72
23.1806	603.30
23.1950	575.22
23.2094	555.23
23.2239	608.43
23.2383	588.95
23.2528	595.85
23.2672	560.37
23.2816	576.30
23.2961	583.14
23.3105	583.81
23.3250	534.03
23.3394	535.55
23.3538	614.00
23.3683	489.49
23.3827	548.40
23.3972	572.74
23.4116	570.07
23.4260	542.10
23.4405	561.20
23.4549	533.64
23.4694	630.80
23.4838	587.78
23.4982	562.67
23.5127	567.17
23.5271	511.88
23.5416	535.07
23.5560	531.59
23.5704	555.22
23.5849	629.87
23.5993	595.51
23.6138	572.36
23.6282	519.99
23.6426	540.12
23.6571	586.65
23.6715	586.51
23.6860	496.92
23.7004	580.58
23.7148	477.86
23.7293	555.66
23.7437	623.10
23.7582	562.96
23.7726	530.41
23.7870	506.90
23.8015	481.94
23.8159	584.95
23.8304	489.51
23.8448	524.08
23.8592	585.57
23.8737	591.88
23.8881	551.82
23.9026	593.16
23.9170	553.08
23.9314	573.92
23.9459	604.75
23.9603	538.76
23.9748	597.36
23.9892	586.54
24.0036	528.46
24.0181	545.43
24.0325	581.75
24.0470	594.51
24.0614	521.49
24.0758	522.50
24.0903	594.52
24.1047	567.07
24.1192	559.11
24.1336	571.36
24.1480	542.32
24.1625	550.33
24.1769	532.17
24.1914	547.55
24.2058	613.12
24.2202	567.94
24.2347	539.22
24.2491	599.43
24.2636	602.34
24.2780	605.34
24.2924	599.38
24.3069	607.85
24.3213	555.48
24.3358	532.99
24.3502	548.53
24.3646	510.90
24.3791	528.57
24.3935	516.03
24.4080	553.88
24.4224	633.60
24.4368	474.89
24.4513	545.12
24.4657	553.69
24.4802	560.32
24.4946	565.79
24.5090	528.63
24.5235	562.06
24.5379	524.98
24.5524	582.38
24.5668	535.84
24.5812	541.65
24.5957	580.20
24.6101	507.14
24.6246	537.49
24.6390	571.38
24.6534	554.11
24.6679	566.12
24.6823	512.52
24.6968	565.42
24.7112	544.97
24.7256	510.10
24.7401	492.73
24.7545	551.55
24.7690	530.40
24.7834	580.50
24.7978	523.84
24.8123	562.87
24.8267	530.52
24.8412	510.51
24.8556	530.52
24.8700	539.23
24.8845	512.81
24.8989	552.78
24.9134	556.64
24.9278	593.18
24.9422	516.40
24.9567	502.15
24.9711	541.45
24.9856	523.91
25.0000	535.46
25.0144	567.27
25.0289	528.63
25.0433	585.80
25.0578	566.07
25.0722	527.90
25.0866	507.10
25.1011	546.66
25.1155	531.75
25.1300	559.44
25.1444	511.02
25.1588	522.35
25.1733	503.42
25.1877	498.15
25.2022	508.39
25.2166	517.74
25.2310	539.06
25.2455	570.53
25.2599	517.10
25.2744	558.19
25.2888	555.43
25.3032	554.28
25.3177	563.69
25.3321	545.03
25.3466	532.89
25.3610	521.68
25.3754	552.72
25.3899	563.41
25.4043	559.70
25.4188	566.32
25.4332	508.36
25.4476	515.97
25.4621	524.17
25.4765	551.80
25.4910	527.05
25.5054	499.29
25.5198	493.85
25.5343	548.53
25.5487	508.48
25.5632	539.43
25.5776	587.84
25.5920	540.16
25.6065	487.57
25.6209	522.20
25.6354	562.76
25.6498	510.53
25.6642	535.57
25.6787	537.72
25.6931	526.81
25.7076	534.00
25.7220	539.60
25.7364	555.53
25.7509	556.65
25.7653	541.31
25.7798	553.93
25.7942	541.20
25.8086	552.40
25.8231	528.11
25.8375	534.65
25.8520	544.54
25.8664	550.33
25.8808	532.29
25.8953	539.24
25.9097	605.72
25.9242	553.34
25.9386	515.13
25.9530	537.11
25.9675	502.37
25.9819	537.78
25.9964	544.93
26.0108	521.95
26.0252	537.43
26.0397	517.45
26.0541	523.26
26.0686	532.05
26.0830	512.25
26.0974	535.66
26.1119	563.13
26.1263	528.21
26.1408	487.21
26.1552	520.28
26.1696	526.17
26.1841	522.97
26.1985	517.97
26.2130	528.07
26.2274	531.41
26.2418	536.24
26.2563	527.54
26.2707	506.88
26.2852	529.69
26.2996	555.44
26.3140	532.20
26.3285	516.15
26.3429	541.53
26.3574	504.95
26.3718	518.81
26.3862	540.85
26.4007	517.52
26.4151	486.12
26.4296	542.58
26.4440	548.78
26.4584	526.92
26.4729	532.90
26.4873	526.84
26.5018	555.23
26.5162	520.33
26.5306	527.18
26.5451	546.72
26.5595	515.14
26.5740	525.08
26.5884	558.72
26.6028	542.11
26.6173	525.35
26.6317	529.48
26.6462	519.42
26.6606	557.06
26.6750	559.36
26.6895	532.92
26.7039	543.33
26.7184	518.52
26.7328	539.14
26.7472	549.53
26.7617	551.50
26.7761	535.85
26.7906	507.43
26.8050	513.07
26.8194	521.99
26.8339	517.20
26.8483	542.51
26.8628	555.69
26.8772	564.69
26.8917	527.02
26.9061	515.37
26.9205	500.17
26.9350	535.81
26.9494	532.55
26.9639	517.72
26.9783	530.48
26.9927	516.41
27.0072	566.23
27.0216	564.03
27.0361	546.77
27.0505	508.38
27.0649	516.58
27.0794	552.91
27.0938	526.60
27.1083	485.45
27.1227	509.72
27.1371	537.49
27.1516	518.22
27.1660	525.51
27.1805	512.49
27.1949	501.07
27.2093	475.45
27.2238	532.66
27.2382	558.22
27.2527	526.90
27.2671	528.40
27.2815	570.09
27.2960	520.63
27.3104	538.61
27.3249	540.89
27.3393	511.77
27.3537	522.17
27.3682	523.70
27.3826	508.67
27.3971	529.18
27.4115	511.78
27.4259	541.36
27.4404	481.28
27.4548	494.50
27.4693	547.82
27.4837	546.96
27.4981	527.58
27.5126	525.59
27.5270	505.90
27.5415	497.03
27.5559	508.58
27.5703	548.80
27.5848	532.12
27.5992	536.29
27.6137	504.73
27.6281	539.07
27.6425	543.02
27.6570	521.17
27.6714	526.16
27.6859	501.84
27.7003	523.72
27.7147	490.27
27.7292	528.48
27.7436	538.64
27.7581	544.70
27.7725	527.74
27.7869	535.96
27.8014	512.32
27.8158	506.70
27.8303	497.25
27.8447	544.23
27.8591	551.05
27.8736	519.98
27.8880	504.02
27.9025	544.15
27.9169	558.13
27.9313	508.52
27.9458	516.05
27.9602	528.74
27.9747	515.68
27.9891	501.17
28.0035	514.54
28.0180	538.86
28.0324	533.21
28.0469	514.97
28.0613	514.49
28.0757	510.23
28.0902	549.78
28.1046	497.39
28.1191	498.53
28.1335	555.98
28.1479	514.06
28.1624	527.03
28.1768	526.84
28.1913	516.57
28.2057	513.05
28.2201	482.49
28.2346	511.43
28.2490	530.61
28.2635	518.56
28.2779	496.73
28.2923	475.50
28.3068	489.10
28.3212	508.90
28.3357	525.83
28.3501	521.41
28.3645	506.15
28.3790	501.84
28.3934	486.30
28.4079	519.74
28.4223	534.28
28.4367	523.30
28.4512	509.33
28.4656	503.12
28.4801	509.15
28.4945	521.07
28.5089	522.19
28.5234	477.72
28.5378	512.73
28.5523	518.16
28.5667	498.07
28.5811	500.08
28.5956	521.06
28.6100	495.32
28.6245	503.95
28.6389	495.59
28.6533	531.30
28.6678	490.83
28.6822	474.77
28.6967	496.83
28.7111	536.51
28.7255	512.85
28.7400	501.64
28.7544	501.97
28.7689	504.33
28.7833	511.68
28.7977	519.14
28.8122	538.09
28.8266	531.23
28.8411	526.53
28.8555	515.68
28.8699	504.50
28.8844	493.91
28.8988	549.24
28.9133	516.61
28.9277	500.45
28.9421	492.13
28.9566	477.83
28.9710	530.77
28.9855	516.52
28.9999	470.53
29.0143	504.08
29.0288	540.87
29.0432	514.55
29.0577	541.07
29.0721	518.45
29.0865	541.75
29.1010	582.51
29.1154	473.14
29.1299	517.67
29.1443	498.76
29.1587	495.64
29.1732	480.36
29.1876	496.32
29.2021	504.55
29.2165	529.57
29.2309	514.50
29.2454	527.80
29.2598	532.59
29.2743	495.59
29.2887	532.29
29.3031	503.15
29.3176	490.25
29.3320	509.85
29.3465	516.10
29.3609	496.78
29.3753	516.63
29.3898	516.46
29.4042	496.33
29.4187	458.08
29.4331	499.82
29.4475	509.92
29.4620	527.64
29.4764	532.20
29.4909	542.20
29.5053	525.29
29.5197	518.16
29.5342	506.52
29.5486	520.12
29.5631	536.95
29.5775	504.50
29.5919	513.15
29.6064	508.10
29.6208	528.77
29.6353	507.87
29.6497	516.76
29.6641	492.72
29.6786	483.65
29.6930	477.68
29.7075	510.67
29.7219	526.79
29.7363	471.66
29.7508	480.55
29.7652	489.71
29.7797	499.82
29.7941	490.31
29.8085	502.26
29.8230	493.79
29.8374	499.15
29.8519	509.85
29.8663	516.74
29.8807	483.00
29.8952	525.76
29.9096	520.46
29.9241	513.73
29.9385	492.44
29.9529	481.09
29.9674	523.42
29.9818	485.34
29.9963	478.75
30.0107	449.65
30.0251	510.31
30.0396	509.60
30.0540	488.02
30.0685	485.69
30.0829	491.80
30.0973	492.43
30.1118	490.29
30.1262	498.23
30.1407	516.07
30.1551	520.09
30.1695	528.50
30.1840	498.37
30.1984	506.24
30.2129	492.82
30.2273	531.62
30.2417	530.95
30.2562	534.59
30.2706	521.61
30.2851	517.95
30.2995	514.88
30.3139	515.21
30.3284	531.26
30.3428	532.08
30.3573	497.39
30.3717	507.97
30.3861	529.51
30.4006	536.99
30.4150	532.90
30.4295	538.63
30.4439	548.75
30.4583	564.21
30.4728	639.32
30.4872	579.21
30.5017	583.49
30.5161	679.55
30.5305	684.31
30.5450	708.35
30.5594	749.60
30.5739	767.12
30.5883	749.61
30.6028	726.51
30.6172	719.84
30.6316	708.08
30.6461	673.26
30.6605	672.73
30.6750	638.34
30.6894	610.79
30.7038	577.77
30.7183	597.16
30.7327	583.46
30.7472	574.51
30.7616	542.87
30.7760	519.42
30.7905	561.03
30.8049	522.61
30.8194	495.75
30.8338	539.20
30.8482	506.82
30.8627	528.21
30.8771	514.22
30.8916	501.94
30.9060	515.38
30.9204	521.12
30.9349	517.45
30.9493	539.31
30.9638	528.72
30.9782	496.82
30.9926	473.28
31.0071	471.89
31.0215	502.84
31.0360	505.78
31.0504	503.54
31.0648	515.36
31.0793	513.52
31.0937	520.20
31.1082	521.10
31.1226	558.72
31.1370	511.22
31.1515	467.42
31.1659	490.18
31.1804	534.79
31.1948	538.64
31.2092	532.19
31.2237	510.29
31.2381	531.72
31.2526	530.47
31.2670	533.29
31.2814	523.84
31.2959	509.96
31.3103	526.33
31.3248	537.72
31.3392	535.04
31.3536	526.82
31.3681	529.25
31.3825	507.03
31.3970	505.88
31.4114	507.77
31.4258	504.09
31.4403	517.37
31.4547	501.11
31.4692	507.15
31.4836	525.47
31.4980	498.63
31.5125	489.47
31.5269	512.40
31.5414	513.83
31.5558	502.02
31.5702	502.59
31.5847	514.85
31.5991	529.86
31.6136	499.63
31.6280	488.06
31.6424	507.29
31.6569	497.74
31.6713	496.40
31.6858	483.40
31.7002	487.82
31.7146	544.55
31.7291	507.47
31.7435	502.47
31.7580	505.62
31.7724	495.30
31.7868	548.18
31.8013	512.38
31.8157	529.75
31.8302	521.62
31.8446	502.72
31.8590	524.09
31.8735	489.84
31.8879	487.09
31.9024	532.41
31.9168	530.96
31.9312	534.45
31.9457	515.17
31.9601	497.51
31.9746	510.70
31.9890	517.03
32.0034	511.38
32.0179	501.75
32.0323	512.09
32.0468	486.34
32.0612	489.40
32.0756	506.20
32.0901	517.45
32.1045	505.32
32.1190	486.44
32.1334	504.41
32.1478	487.75
32.1623	526.77
32.1767	516.71
32.1912	482.52
32.2056	508.07
32.2200	492.12
32.2345	489.97
32.2489	516.89
32.2634	511.68
32.2778	540.41
32.2922	503.80
32.3067	520.54
32.3211	517.89
32.3356	511.97
32.3500	506.16
32.3644	497.00
32.3789	505.32
32.3933	458.40
32.4078	478.85
32.4222	517.00
32.4366	522.92
32.4511	479.53
32.4655	501.24
32.4800	503.99
32.4944	499.77
32.5088	503.51
32.5233	498.91
32.5377	510.02
32.5522	517.54
32.5666	501.10
32.5810	477.67
32.5955	488.12
32.6099	504.59
32.6244	501.78
32.6388	505.08
32.6532	480.01
32.6677	500.88
32.6821	494.92
32.6966	455.74
32.7110	493.85
32.7254	484.73
32.7399	499.11
32.7543	510.69
32.7688	492.06
32.7832	514.99
32.7976	514.28
32.8121	543.78
32.8265	509.62
32.8410	508.61
32.8554	528.45
32.8698	545.61
32.8843	527.75
32.8987	547.41
32.9132	536.46
32.9276	510.29
32.9420	500.23
32.9565	518.13
32.9709	479.42
32.9854	516.86
32.9998	499.23
33.0142	452.58
33.0287	525.37
33.0431	502.04
33.0576	502.93
33.0720	470.43
33.0864	474.44
33.1009	524.29
33.1153	518.23
33.1298	525.33
33.1442	510.90
33.1586	477.36
33.1731	489.47
33.1875	470.77
33.2020	496.49
33.2164	468.31
33.2308	450.28
33.2453	456.37
33.2597	495.75
33.2742	512.77
33.2886	489.82
33.3030	518.15
33.3175	513.23
33.3319	504.12
33.3464	510.30
33.3608	521.27
33.3752	499.68
33.3897	512.81
33.4041	488.94
33.4186	517.26
33.4330	525.36
33.4474	517.95
33.4619	492.86
33.4763	497.61
33.4908	489.38
33.5052	489.78
33.5196	534.22
33.5341	529.62
33.5485	513.74
33.5630	508.20
33.5774	499.04
33.5918	512.02
33.6063	543.14
33.6207	524.24
33.6352	532.97
33.6496	516.83
33.6640	530.21
33.6785	515.44
33.6929	524.40
33.7074	490.80
33.7218	508.11
33.7362	506.72
33.7507	505.13
33.7651	484.04
33.7796	518.40
33.7940	492.36
33.8084	479.46
33.8229	469.32
33.8373	520.81
33.8518	519.65
33.8662	515.75
33.8806	471.58
33.8951	505.50
33.9095	499.17
33.9240	512.74
33.9384	492.53
33.9528	519.36
33.9673	477.00
33.9817	482.88
33.9962	500.60
34.0106	526.76
34.0250	508.18
34.0395	494.38
34.0539	509.77
34.0684	488.84
34.0828	497.08
34.0972	537.16
34.1117	545.07
34.1261	512.47
34.1406	485.40
34.1550	510.04
34.1694	520.80
34.1839	513.90
34.1983	482.56
34.2128	493.63
34.2272	500.75
34.2417	520.68
34.2561	518.14
34.2705	504.49
34.2850	501.92
34.2994	507.16
34.3139	495.45
34.3283	496.64
34.3427	547.01
34.3572	496.14
34.3716	511.36
34.3861	477.83
34.4005	495.51
34.4149	506.02
34.4294	515.42
34.4438	477.42
34.4583	474.27
34.4727	492.52
34.4871	477.56
34.5016	471.65
34.5160	513.81
34.5305	500.29
34.5449	525.00
34.5593	508.16
34.5738	473.78
34.5882	522.76
34.6027	523.79
34.6171	519.38
34.6315	460.81
34.6460	508.86
34.6604	512.17
34.6749	518.04
34.6893	461.73
34.7037	528.98
34.7182	539.22
34.7326	486.78
34.7471	496.24
34.7615	478.85
34.7759	514.30
34.7904	536.64
34.8048	487.48
34.8193	501.44
34.8337	505.06
34.8481	510.65
34.8626	529.44
34.8770	523.63
34.8915	521.25
34.9059	567.99
34.9203	501.94
34.9348	456.98
34.9492	506.10
34.9637	513.51
34.9781	506.33
34.9925	496.14
35.0070	501.58
35.0214	539.27
35.0359	565.87
35.0503	518.79
35.0647	503.16
35.0792	517.73
35.0936	481.84
35.1081	502.71
35.1225	533.17
35.1369	532.91
35.1514	487.05
35.1658	522.36
35.1803	532.14
35.1947	527.03
35.2091	502.77
35.2236	473.69
35.2380	506.11
35.2525	514.65
35.2669	510.40
35.2813	514.42
35.2958	514.76
35.3102	543.97
35.3247	540.04
35.3391	521.83
35.3535	506.40
35.3680	509.33
35.3824	503.45
35.3969	480.63
35.4113	514.86
35.4257	527.44
35.4402	551.59
35.4546	528.41
35.4691	546.11
35.4835	539.21
35.4979	548.16
35.5124	545.65
35.5268	548.95
35.5413	531.84
35.5557	539.05
35.5701	531.03
35.5846	530.32
35.5990	563.56
35.6135	540.80
35.6279	540.57
35.6423	511.66
35.6568	527.49
35.6712	529.01
35.6857	564.82
35.7001	693.44
35.7145	746.92
35.7290	743.44
35.7434	650.19
35.7579	595.93
35.7723	606.55
35.7867	663.07
35.8012	727.44
35.8156	750.90
35.8301	713.02
35.8445	706.59
35.8589	769.03
35.8734	889.32
35.8878	950.84
35.9023	1100.44
35.9167	1139.61
35.9311	1298.71
35.9456	1551.55
35.9600	1852.52
35.9745	1922.84
35.9889	2303.93
36.0033	2688.90
36.0178	3005.02
36.0322	3194.54
36.0467	2723.28
36.0611	2222.62
36.0755	2002.56
36.0900	2194.61
36.1044	2214.10
36.1189	1811.66
36.1333	1377.04
36.1477	1081.46
36.1622	1005.76
36.1766	951.54
36.1911	856.87
36.2055	746.62
36.2199	705.89
36.2344	758.54
36.2488	668.14
36.2633	567.41
36.2777	566.82
36.2921	551.40
36.3066	565.28
36.3210	546.48
36.3355	553.83
36.3499	533.47
36.3643	530.16
36.3788	540.60
36.3932	514.19
36.4077	499.79
36.4221	528.49
36.4365	509.03
36.4510	516.89
36.4654	520.06
36.4799	544.27
36.4943	508.19
36.5087	519.29
36.5232	532.64
36.5376	514.24
36.5521	554.54
36.5665	511.19
36.5809	546.38
36.5954	531.18
36.6098	553.53
36.6243	550.35
36.6387	538.97
36.6531	528.25
36.6676	519.91
36.6820	500.85
36.6965	501.51
36.7109	575.20
36.7253	523.24
36.7398	499.85
36.7542	470.43
36.7687	510.91
36.7831	543.46
36.7975	537.58
36.8120	565.11
36.8264	546.61
36.8409	588.72
36.8553	575.28
36.8697	552.23
36.8842	608.90
36.8986	599.42
36.9131	587.11
36.9275	553.11
36.9419	564.05
36.9564	571.31
36.9708	594.15
36.9853	570.77
36.9997	567.12
37.0141	526.15
37.0286	598.28
37.0430	521.54
37.0575	540.45
37.0719	506.22
37.0863	507.60
37.1008	527.64
37.1152	521.12
37.1297	530.57
37.1441	517.68
37.1585	504.94
37.1730	505.36
37.1874	473.88
37.2019	502.32
37.2163	489.10
37.2307	477.91
37.2452	522.26
37.2596	526.10
37.2741	510.59
37.2885	524.31
37.3029	515.50
37.3174	478.46
37.3318	516.99
37.3463	531.69
37.3607	506.38
37.3751	509.04
37.3896	502.30
37.4040	503.21
37.4185	511.27
37.4329	493.97
37.4473	503.73
37.4618	524.31
37.4762	510.08
37.4907	514.88
37.5051	494.05
37.5195	512.24
37.5340	522.82
37.5484	508.52
37.5629	530.41
37.5773	510.17
37.5917	517.99
37.6062	502.39
37.6206	502.57
37.6351	498.66
37.6495	490.13
37.6639	520.00
37.6784	521.45
37.6928	492.47
37.7073	542.39
37.7217	493.76
37.7361	537.10
37.7506	551.41
37.7650	483.25
37.7795	496.51
37.7939	528.51
37.8083	502.91
37.8228	515.57
37.8372	502.89
37.8517	527.29
37.8661	508.08
37.8805	499.75
37.8950	508.84
37.9094	528.89
37.9239	490.81
37.9383	491.09
37.9528	514.34
37.9672	511.48
37.9816	516.91
37.9961	504.44
38.0105	478.29
38.0250	481.73
38.0394	478.52
38.0538	489.55
38.0683	525.11
38.0827	523.53
38.0972	521.20
38.1116	514.96
38.1260	539.94
38.1405	523.78
38.1549	479.52
38.1694	524.51
38.1838	521.36
38.1982	485.53
38.2127	512.32
38.2271	521.36
38.2416	527.80
38.2560	478.82
38.2704	474.72
38.2849	493.77
38.2993	503.69
38.3138	492.90
38.3282	499.07
38.3426	544.01
38.3571	538.42
38.3715	546.92
38.3860	526.86
38.4004	543.35
38.4148	541.66
38.4293	548.12
38.4437	528.32
38.4582	612.26
38.4726	660.82
38.4870	671.48
38.5015	715.79
38.5159	771.16
38.5304	826.51
38.5448	831.13
38.5592	784.78
38.5737	779.84
38.5881	760.25
38.6026	701.71
38.6170	716.55
38.6314	696.35
38.6459	648.84
38.6603	645.53
38.6748	603.11
38.6892	563.84
38.7036	572.02
38.7181	534.65
38.7325	508.32
38.7470	509.06
38.7614	518.37
38.7758	519.13
38.7903	555.42
38.8047	521.45
38.8192	531.46
38.8336	495.29
38.8480	477.49
38.8625	516.88
38.8769	497.65
38.8914	541.33
38.9058	552.33
38.9202	480.82
38.9347	472.88
38.9491	496.79
38.9636	500.98
38.9780	523.61
38.9924	512.97
39.0069	496.58
39.0213	533.43
39.0358	521.99
39.0502	483.20
39.0646	476.46
39.0791	490.30
39.0935	522.94
39.1080	505.90
39.1224	518.42
39.1368	536.50
39.1513	509.40
39.1657	489.76
39.1802	483.25
39.1946	500.95
39.2090	457.39
39.2235	486.89
39.2379	505.06
39.2524	511.93
39.2668	505.69
39.2812	493.11
39.2957	480.10
39.3101	472.31
39.3246	485.34
39.3390	529.87
39.3534	515.10
39.3679	503.91
39.3823	488.21
39.3968	509.22
39.4112	514.60
39.4256	518.71
39.4401	515.86
39.4545	506.92
39.4690	512.08
39.4834	544.50
39.4978	516.66
39.5123	489.18
39.5267	503.18
39.5412	499.23
39.5556	539.71
39.5700	499.80
39.5845	511.74
39.5989	502.54
39.6134	507.81
39.6278	509.33
39.6422	517.75
39.6567	471.55
39.6711	537.19
39.6856	499.41
39.7000	509.10
39.7144	508.90
39.7289	476.20
39.7433	507.92
39.7578	489.94
39.7722	494.93
39.7866	528.66
39.8011	514.41
39.8155	471.48
39.8300	492.98
39.8444	485.36
39.8588	507.60
39.8733	520.41
39.8877	483.80
39.9022	543.98
39.9166	496.38
39.9310	503.84
39.9455	504.47
39.9599	514.06
39.9744	495.78
39.9888	511.45
40.0032	490.77
40.0177	507.39
40.0321	496.44
40.0466	483.39
40.0610	515.73
40.0754	529.61
40.0899	535.02
40.1043	488.87
40.1188	488.40
40.1332	510.14
40.1476	469.42
40.1621	467.71
40.1765	495.56
40.1910	500.26
40.2054	511.46
40.2198	501.94
40.2343	486.21
40.2487	500.89
40.2632	524.25
40.2776	508.27
40.2920	488.63
40.3065	505.04
40.3209	485.00
40.3354	512.65
40.3498	474.56
40.3642	481.85
40.3787	474.48
40.3931	481.50
40.4076	510.53
40.4220	491.41
40.4364	517.20
40.4509	512.31
40.4653	507.75
40.4798	486.33
40.4942	514.39
40.5086	488.66
40.5231	500.52
40.5375	504.80
40.5520	486.64
40.5664	510.22
40.5808	453.24
40.5953	473.61
40.6097	479.43
40.6242	486.08
40.6386	509.00
40.6530	477.03
40.6675	500.69
40.6819	492.27
40.6964	486.23
40.7108	491.95
40.7252	481.60
40.7397	478.85
40.7541	500.12
40.7686	509.78
40.7830	495.05
40.7974	491.38
40.8119	486.36
40.8263	480.85
40.8408	497.96
40.8552	496.64
40.8696	501.04
40.8841	519.76
40.8985	496.76
40.9130	518.71
40.9274	506.94
40.9418	519.57
40.9563	477.56
40.9707	476.49
40.9852	476.91
40.9996	499.54
41.0140	484.95
41.0285	485.49
41.0429	497.65
41.0574	503.53
41.0718	465.81
41.0862	527.95
41.1007	501.12
41.1151	504.66
41.1296	528.60
41.1440	470.83
41.1584	465.60
41.1729	518.07
41.1873	511.28
41.2018	497.42
41.2162	484.25
41.2306	498.18
41.2451	508.70
41.2595	483.87
41.2740	485.71
41.2884	488.19
41.3028	507.16
41.3173	474.43
41.3317	502.42
41.3462	525.18
41.3606	477.85
41.3750	500.31
41.3895	520.83
41.4039	501.38
41.4184	495.95
41.4328	517.13
41.4472	513.17
41.4617	527.60
41.4761	486.10
41.4906	476.93
41.5050	453.15
41.5194	507.65
41.5339	470.08
41.5483	488.68
41.5628	455.74
41.5772	528.66
41.5916	506.13
41.6061	494.53
41.6205	509.38
41.6350	491.68
41.6494	499.69
41.6639	501.47
41.6783	508.73
41.6927	469.71
41.7072	477.67
41.7216	510.48
41.7361	492.37
41.7505	491.61
41.7649	487.19
41.7794	481.02
41.7938	517.36
41.8083	488.19
41.8227	517.62
41.8371	503.66
41.8516	515.43
41.8660	534.11
41.8805	518.22
41.8949	498.37
41.9093	554.33
41.9238	565.96
41.9382	542.08
41.9527	577.33
41.9671	512.85
41.9815	595.66
41.9960	547.77
42.0104	549.60
42.0249	552.66
42.0393	546.28
42.0537	559.07
42.0682	591.42
42.0826	543.85
42.0971	548.25
42.1115	582.07
42.1259	578.42
42.1404	560.52
42.1548	570.68
42.1693	632.00
42.1837	722.97
42.1981	709.66
42.2126	790.14
42.2270	919.02
42.2415	1074.81
42.2559	1172.90
42.2703	1306.52
42.2848	1528.56
42.2992	1582.68
42.3137	1602.75
42.3281	1614.43
42.3425	1573.57
42.3570	1495.27
42.3714	1409.02
42.3859	1347.97
42.4003	1319.46
42.4147	1295.24
42.4292	1221.97
42.4436	1113.17
42.4581	1033.49
42.4725	926.86
42.4869	834.46
42.5014	764.50
42.5158	710.74
42.5303	663.38
42.5447	622.91
42.5591	626.86
42.5736	570.60
42.5880	573.43
42.6025	563.60
42.6169	585.46
42.6313	540.69
42.6458	569.33
42.6602	556.72
42.6747	539.35
42.6891	536.07
42.7035	549.80
42.7180	547.74
42.7324	510.69
42.7469	509.83
42.7613	546.99
42.7757	547.77
42.7902	537.89
42.8046	525.84
42.8191	529.22
42.8335	517.22
42.8479	524.66
42.8624	535.18
42.8768	528.59
42.8913	517.78
42.9057	525.69
42.9201	498.34
42.9346	477.70
42.9490	509.85
42.9635	509.93
42.9779	492.26
42.9923	529.08
43.0068	524.83
43.0212	527.63
43.0357	496.96
43.0501	479.70
43.0645	504.07
43.0790	501.90
43.0934	519.94
43.1079	514.62
43.1223	530.69
43.1367	552.13
43.1512	492.47
43.1656	481.20
43.1801	502.44
43.1945	523.58
43.2089	496.31
43.2234	484.46
43.2378	507.60
43.2523	528.75
43.2667	514.65
43.2811	512.59
43.2956	511.39
43.3100	530.45
43.3245	526.12
43.3389	486.00
43.3533	523.59
43.3678	492.12
43.3822	512.40
43.3967	499.74
43.4111	488.05
43.4255	517.94
43.4400	499.34
43.4544	488.79
43.4689	504.35
43.4833	520.10
43.4977	517.14
43.5122	503.20
43.5266	498.18
43.5411	490.08
43.5555	545.08
43.5699	532.60
43.5844	522.37
43.5988	514.67
43.6133	498.31
43.6277	539.55
43.6421	512.45
43.6566	524.12
43.6710	547.16
43.6855	558.74
43.6999	578.78
43.7143	646.92
43.7288	631.58
43.7432	705.94
43.7577	683.92
43.7721	666.35
43.7865	625.03
43.8010	616.49
43.8154	604.27
43.8299	613.69
43.8443	612.60
43.8587	596.76
43.8732	583.00
43.8876	553.85
43.9021	605.14
43.9165	548.98
43.9309	554.90
43.9454	564.49
43.9598	526.45
43.9743	527.71
43.9887	543.39
44.0031	495.75
44.0176	522.61
44.0320	510.91
44.0465	528.18
44.0609	518.78
44.0753	522.62
44.0898	556.62
44.1042	494.93
44.1187	543.12
44.1331	526.18
44.1475	491.08
44.1620	517.67
44.1764	520.62
44.1909	541.13
44.2053	503.99
44.2197	509.83
44.2342	505.32
44.2486	506.23
44.2631	457.66
44.2775	512.84
44.2919	477.60
44.3064	486.92
44.3208	550.95
44.3353	568.79
44.3497	518.29
44.3641	497.15
44.3786	545.59
44.3930	548.94
44.4075	520.48
44.4219	561.11
44.4363	562.01
44.4508	570.34
44.4652	562.80
44.4797	582.32
44.4941	609.54
44.5085	586.77
44.5230	588.61
44.5374	550.10
44.5519	567.61
44.5663	597.22
44.5807	552.30
44.5952	594.59
44.6096	565.12
44.6241	570.47
44.6385	591.27
44.6529	577.55
44.6674	570.30
44.6818	577.22
44.6963	619.86
44.7107	681.76
44.7251	702.40
44.7396	705.34
44.7540	733.20
44.7685	832.27
44.7829	878.02
44.7973	869.12
44.8118	840.96
44.8262	804.40
44.8407	746.19
44.8551	726.81
44.8695	756.58
44.8840	747.12
44.8984	783.79
44.9129	737.14
44.9273	673.61
44.9417	689.23
44.9562	600.92
44.9706	557.51
44.9851	572.53
44.9995	539.57
45.0139	564.12
45.0284	514.29
45.0428	522.75
45.0573	525.79
45.0717	495.75
45.0861	534.26
45.1006	522.83
45.1150	539.63
45.1295	534.56
45.1439	508.74
45.1583	479.69
45.1728	484.00
45.1872	499.17
45.2017	489.78
45.2161	491.62
45.2305	513.34
45.2450	521.08
45.2594	484.49
45.2739	506.47
45.2883	491.53
45.3028	523.30
45.3172	522.64
45.3316	526.87
45.3461	507.68
45.3605	516.02
45.3750	504.14
45.3894	474.25
45.4038	456.00
45.4183	485.87
45.4327	541.80
45.4472	495.08
45.4616	527.35
45.4760	476.23
45.4905	508.37
45.5049	490.85
45.5194	486.30
45.5338	487.89
45.5482	511.59
45.5627	519.39
45.5771	485.93
45.5916	483.13
45.6060	495.85
45.6204	524.93
45.6349	523.04
45.6493	511.70
45.6638	519.78
45.6782	521.46
45.6926	512.11
45.7071	497.96
45.7215	539.37
45.7360	515.17
45.7504	512.10
45.7648	465.50
45.7793	515.33
45.7937	524.33
45.8082	504.12
45.8226	507.84
45.8370	528.10
45.8515	529.65
45.8659	527.78
45.8804	505.68
45.8948	474.78
45.9092	482.38
45.9237	487.49
45.9381	511.81
45.9526	508.85
45.9670	480.51
45.9814	463.62
45.9959	501.29
46.0103	471.54
46.0248	478.50
46.0392	490.96
46.0536	510.72
46.0681	528.11
46.0825	521.82
46.0970	493.30
46.1114	498.00
46.1258	481.98
46.1403	495.19
46.1547	514.54
46.1692	500.62
46.1836	495.17
46.1980	500.08
46.2125	494.36
46.2269	511.79
46.2414	519.09
46.2558	507.99
46.2702	484.77
46.2847	480.60
46.2991	483.26
46.3136	485.11
46.3280	510.67
46.3424	524.00
46.3569	492.54
46.3713	509.36
46.3858	471.67
46.4002	482.63
46.4146	473.65
46.4291	505.31
46.4435	483.48
46.4580	501.25
46.4724	507.96
46.4868	499.04
46.5013	465.96
46.5157	471.67
46.5302	488.91
46.5446	500.51
46.5590	503.34
46.5735	494.41
46.5879	490.37
46.6024	491.18
46.6168	483.64
46.6312	504.11
46.6457	519.59
46.6601	513.69
46.6746	525.71
46.6890	501.71
46.7034	512.37
46.7179	523.10
46.7323	494.54
46.7468	524.97
46.7612	509.57
46.7756	508.65
46.7901	496.64
46.8045	522.16
46.8190	522.95
46.8334	541.96
46.8478	491.81
46.8623	500.97
46.8767	501.77
46.8912	535.25
46.9056	516.09
46.9200	481.59
46.9345	520.21
46.9489	516.53
46.9634	498.98
46.9778	508.32
46.9922	515.53
47.0067	524.23
47.0211	494.70
47.0356	534.48
47.0500	498.50
47.0644	511.53
47.0789	550.20
47.0933	559.92
47.1078	528.31
47.1222	522.01
47.1366	502.57
47.1511	476.75
47.1655	459.11
47.1800	470.11
47.1944	495.25
47.2088	530.89
47.2233	501.24
47.2377	492.30
47.2522	497.90
47.2666	516.49
47.2810	533.79
47.2955	488.56
47.3099	493.19
47.3244	494.77
47.3388	510.67
47.3532	482.24
47.3677	511.56
47.3821	519.30
47.3966	483.04
47.4110	511.68
47.4254	482.47
47.4399	478.22
47.4543	498.01
47.4688	506.82
47.4832	502.27
47.4976	490.24
47.5121	482.26
47.5265	493.30
47.5410	493.67
47.5554	515.09
47.5698	515.07
47.5843	515.98
47.5987	495.10
47.6132	516.67
47.6276	481.06
47.6420	489.87
47.6565	512.77
47.6709	488.54
47.6854	519.43
47.6998	509.19
47.7142	497.06
47.7287	497.22
47.7431	527.95
47.7576	478.19
47.7720	480.45
47.7864	522.87
47.8009	529.96
47.8153	499.61
47.8298	490.53
47.8442	491.38
47.8586	513.02
47.8731	499.35
47.8875	490.13
47.9020	536.48
47.9164	491.31
47.9308	502.54
47.9453	559.42
47.9597	508.32
47.9742	532.84
47.9886	527.24
48.0030	479.94
48.0175	538.77
48.0319	540.61
48.0464	528.07
48.0608	540.33
48.0752	536.17
48.0897	514.92
48.1041	527.35
48.1186	533.02
48.1330	524.06
48.1474	515.76
48.1619	495.18
48.1763	532.63
48.1908	520.30
48.2052	510.32
48.2196	507.14
48.2341	506.94
48.2485	495.06
48.2630	513.08
48.2774	529.91
48.2918	519.88
48.3063	491.08
48.3207	490.69
48.3352	519.80
48.3496	537.17
48.3640	539.42
48.3785	521.04
48.3929	480.01
48.4074	489.16
48.4218	488.46
48.4362	472.15
48.4507	514.11
48.4651	518.25
48.4796	509.49
48.4940	523.75
48.5084	497.59
48.5229	507.54
48.5373	496.34
48.5518	506.13
48.5662	537.54
48.5806	541.97
48.5951	488.97
48.6095	504.43
48.6240	500.41
48.6384	531.16
48.6528	545.19
48.6673	496.07
48.6817	460.78
48.6962	508.29
48.7106	550.79
48.7250	567.09
48.7395	510.02
48.7539	519.63
48.7684	488.15
48.7828	520.43
48.7972	506.87
48.8117	523.04
48.8261	515.61
48.8406	536.44
48.8550	578.31
48.8694	542.29
48.8839	556.25
48.8983	554.11
48.9128	508.69
48.9272	499.60
48.9416	562.26
48.9561	573.01
48.9705	555.45
48.9850	573.08
48.9994	571.98
49.0139	616.62
49.0283	615.83
49.0427	570.35
49.0572	592.51
49.0716	645.68
49.0861	692.88
49.1005	679.31
49.1149	742.54
49.1294	730.34
49.1438	699.55
49.1583	810.05
49.1727	871.08
49.1871	915.12
49.2016	979.99
49.2160	1064.72
49.2305	1084.05
49.2449	1239.92
49.2593	1327.75
49.2738	1401.12
49.2882	1530.33
49.3027	1634.02
49.3171	1724.70
49.3315	1757.30
49.3460	1832.57
49.3604	1823.11
49.3749	1845.76
49.3893	1796.36
49.4037	1796.32
49.4182	1860.48
49.4326	1798.95
49.4471	1710.73
49.4615	1668.93
49.4759	1647.11
49.4904	1529.18
49.5048	1427.83
49.5193	1350.16
49.5337	1251.72
49.5481	1225.17
49.5626	1082.78
49.5770	1032.45
49.5915	973.89
49.6059	893.27
49.6203	862.06
49.6348	829.79
49.6492	761.20
49.6637	748.07
49.6781	697.44
49.6925	682.97
49.7070	708.76
49.7214	655.66
49.7359	601.87
49.7503	598.14
49.7647	583.80
49.7792	616.21
49.7936	572.55
49.8081	579.95
49.8225	586.10
49.8369	568.02
49.8514	558.63
49.8658	534.45
49.8803	536.44
49.8947	559.61
49.9091	549.44
49.9236	518.90
49.9380	535.20
49.9525	541.14
49.9669	519.18
49.9813	521.01
49.9958	532.76
50.0102	520.79
50.0247	536.56
50.0391	520.28
50.0535	550.23
50.0680	560.87
50.0824	546.76
50.0969	504.23
50.1113	524.37
50.1257	513.66
50.1402	525.70
50.1546	518.51
50.1691	534.29
50.1835	515.17
50.1979	478.74
50.2124	487.96
50.2268	545.82
50.2413	550.58
50.2557	569.59
50.2701	549.92
50.2846	532.11
50.2990	520.63
50.3135	514.21
50.3279	538.74
50.3423	519.61
50.3568	501.54
50.3712	522.82
50.3857	488.66
50.4001	482.84
50.4145	515.35
50.4290	527.18
50.4434	505.65
50.4579	522.13
50.4723	538.79
50.4867	487.54
50.5012	494.68
50.5156	519.17
50.5301	522.13
50.5445	491.31
50.5589	507.47
50.5734	506.33
50.5878	492.50
50.6023	525.97
50.6167	520.41
50.6311	515.08
50.6456	498.83
50.6600	502.17
50.6745	536.72
50.6889	485.54
50.7033	501.96
50.7178	544.47
50.7322	530.52
50.7467	509.92
50.7611	517.81
50.7755	507.59
50.7900	491.52
50.8044	520.04
50.8189	525.46
50.8333	521.99
50.8477	480.90
50.8622	493.48
50.8766	493.73
50.8911	505.48
50.9055	533.90
50.9199	513.17
50.9344	510.91
50.9488	507.26
50.9633	468.61
50.9777	493.00
50.9921	507.30
51.0066	478.59
51.0210	486.10
51.0355	538.39
51.0499	506.79
51.0643	490.89
51.0788	509.23
51.0932	524.61
51.1077	470.76
51.1221	523.77
51.1365	475.20
51.1510	482.03
51.1654	511.03
51.1799	505.30
51.1943	489.51
51.2087	496.45
51.2232	504.19
51.2376	527.14
51.2521	493.50
51.2665	491.67
51.2809	489.28
51.2954	452.47
51.3098	499.53
51.3243	517.76
51.3387	522.88
51.3531	516.40
51.3676	518.40
51.3820	495.17
51.3965	505.35
51.4109	501.62
51.4253	522.65
51.4398	545.55
51.4542	506.38
51.4687	508.95
51.4831	521.45
51.4975	513.65
51.5120	503.56
51.5264	485.31
51.5409	525.59
51.5553	526.37
51.5697	481.87
51.5842	475.39
51.5986	515.90
51.6131	506.78
51.6275	504.08
51.6419	535.14
51.6564	536.93
51.6708	527.37
51.6853	519.50
51.6997	492.11
51.7141	492.86
51.7286	499.01
51.7430	477.63
51.7575	508.80
51.7719	523.55
51.7863	531.28
51.8008	503.18
51.8152	506.34
51.8297	473.44
51.8441	487.47
51.8585	542.13
51.8730	517.54
51.8874	497.82
51.9019	526.35
51.9163	503.14
51.9307	509.10
51.9452	525.53
51.9596	493.50
51.9741	497.77
51.9885	508.38
52.0029	518.71
52.0174	519.92
52.0318	479.79
52.0463	507.30
52.0607	525.77
52.0751	478.36
52.0896	538.91
52.1040	541.40
52.1185	502.44
52.1329	491.36
52.1473	471.43
52.1618	475.12
52.1762	484.27
52.1907	493.11
52.2051	503.94
52.2195	514.53
52.2340	506.24
52.2484	499.21
52.2629	516.67
52.2773	474.45
52.2917	476.11
52.3062	475.06
52.3206	478.21
52.3351	500.63
52.3495	478.78
52.3639	513.28
52.3784	485.12
52.3928	493.19
52.4073	509.65
52.4217	516.78
52.4361	528.76
52.4506	511.18
52.4650	529.98
52.4795	513.58
52.4939	548.49
52.5083	491.74
52.5228	492.77
52.5372	552.62
52.5517	513.17
52.5661	500.07
52.5805	484.84
52.5950	483.32
52.6094	489.92
52.6239	494.06
52.6383	506.20
52.6527	505.24
52.6672	528.21
52.6816	529.50
52.6961	517.89
52.7105	481.83
52.7250	493.58
52.7394	493.92
52.7538	531.48
52.7683	489.23
52.7827	501.82
52.7972	479.93
52.8116	501.21
52.8260	509.12
52.8405	517.05
52.8549	520.00
52.8694	532.61
52.8838	492.65
52.8982	532.71
52.9127	521.51
52.9271	500.83
52.9416	503.56
52.9560	483.16
52.9704	496.66
52.9849	528.53
52.9993	495.47
53.0138	512.55
53.0282	500.29
53.0426	497.55
53.0571	526.95
53.0715	516.77
53.0860	525.79
53.1004	528.85
53.1148	529.41
53.1293	498.18
53.1437	462.15
53.1582	495.37
53.1726	494.85
53.1870	475.24
53.2015	512.99
53.2159	504.68
53.2304	519.83
53.2448	541.26
53.2592	491.96
53.2737	511.98
53.2881	479.15
53.3026	491.59
53.3170	546.92
53.3314	521.84
53.3459	532.94
53.3603	547.05
53.3748	555.63
53.3892	500.22
53.4036	508.19
53.4181	502.91
53.4325	526.61
53.4470	529.79
53.4614	521.58
53.4758	530.07
53.4903	495.95
53.5047	500.46
53.5192	494.31
53.5336	509.17
53.5480	549.41
53.5625	516.63
53.5769	473.04
53.5914	505.56
53.6058	507.49
53.6202	503.29
53.6347	531.30
53.6491	500.00
53.6636	518.31
53.6780	512.55
53.6924	493.58
53.7069	493.95
53.7213	510.34
53.7358	497.96
53.7502	538.87
53.7646	538.02
53.7791	491.44
53.7935	494.47
53.8080	517.97
53.8224	533.88
53.8368	542.47
53.8513	480.74
53.8657	507.24
53.8802	514.62
53.8946	544.02
53.9090	540.25
53.9235	513.75
53.9379	500.81
53.9524	540.07
53.9668	529.86
53.9812	493.92
53.9957	539.10
54.0101	527.45
54.0246	510.10
54.0390	496.61
54.0534	494.79
54.0679	533.49
54.0823	527.33
54.0968	519.76
54.1112	555.56
54.1256	564.78
54.1401	521.24
54.1545	545.74
54.1690	573.65
54.1834	546.67
54.1978	561.52
54.2123	580.02
54.2267	584.13
54.2412	603.37
54.2556	610.30
54.2700	597.03
54.2845	660.36
54.2989	623.39
54.3134	614.99
54.3278	622.45
54.3422	609.29
54.3567	616.24
54.3711	604.69
54.3856	592.30
54.4000	567.47
54.4144	595.03
54.4289	645.66
54.4433	609.48
54.4578	553.32
54.4722	579.89
54.4866	542.55
54.5011	545.89
54.5155	535.42
54.5300	557.03
54.5444	547.73
54.5588	539.61
54.5733	518.45
54.5877	532.24
54.6022	488.31
54.6166	475.63
54.6310	491.69
54.6455	545.55
54.6599	517.13
54.6744	511.27
54.6888	505.88
54.7032	551.85
54.7177	549.61
54.7321	511.06
54.7466	509.56
54.7610	499.60
54.7754	528.18
54.7899	533.07
54.8043	482.05
54.8188	500.03
54.8332	512.16
54.8476	527.60
54.8621	536.62
54.8765	536.71
54.8910	517.38
54.9054	514.18
54.9198	518.96
54.9343	528.22
54.9487	521.27
54.9632	501.15
54.9776	512.51
54.9920	522.43
55.0065	510.57
55.0209	536.66
55.0354	518.70
55.0498	496.49
55.0642	488.06
55.0787	502.65
55.0931	510.38
55.1076	503.68
55.1220	496.32
55.1364	490.61
55.1509	510.51
55.1653	518.00
55.1798	508.85
55.1942	517.45
55.2086	511.78
55.2231	516.54
55.2375	544.78
55.2520	522.41
55.2664	490.23
55.2808	519.97
55.2953	518.04
55.3097	510.01
55.3242	542.83
55.3386	558.21
55.3530	500.73
55.3675	522.14
55.3819	518.03
55.3964	502.40
55.4108	494.19
55.4252	498.91
55.4397	504.54
55.4541	493.78
55.4686	546.88
55.4830	523.86
55.4974	506.16
55.5119	490.54
55.5263	478.90
55.5408	511.78
55.5552	501.48
55.5696	518.65
55.5841	517.91
55.5985	530.13
55.6130	521.31
55.6274	499.58
55.6418	522.81
55.6563	535.58
55.6707	508.84
55.6852	502.25
55.6996	523.03
55.7140	534.99
55.7285	538.74
55.7429	530.76
55.7574	529.90
55.7718	502.96
55.7862	538.05
55.8007	513.02
55.8151	544.55
55.8296	548.39
55.8440	513.96
55.8584	508.52
55.8729	540.00
55.8873	530.30
55.9018	509.80
55.9162	530.78
55.9306	505.31
55.9451	516.52
55.9595	487.04
55.9740	537.20
55.9884	510.79
56.0028	536.13
56.0173	499.69
56.0317	514.34
56.0462	519.71
56.0606	541.88
56.0750	513.73
56.0895	507.24
56.1039	507.61
56.1184	568.19
56.1328	549.61
56.1472	488.61
56.1617	489.45
56.1761	512.01
56.1906	518.25
56.2050	504.00
56.2194	539.80
56.2339	533.29
56.2483	573.17
56.2628	533.80
56.2772	528.67
56.2916	537.18
56.3061	512.26
56.3205	509.66
56.3350	496.68
56.3494	501.37
56.3639	508.45
56.3783	526.18
56.3927	513.59
56.4072	491.28
56.4216	520.03
56.4361	529.00
56.4505	527.85
56.4649	517.35
56.4794	503.64
56.4938	561.87
56.5083	514.70
56.5227	544.58
56.5371	531.47
56.5516	505.62
56.5660	533.43
56.5805	530.23
56.5949	508.72
56.6093	509.21
56.6238	537.51
56.6382	487.71
56.6527	507.00
56.6671	547.73
56.6815	525.82
56.6960	523.07
56.7104	531.82
56.7249	515.80
56.7393	509.24
56.7537	518.17
56.7682	494.16
56.7826	524.73
56.7971	493.05
56.8115	528.11
56.8259	542.38
56.8404	526.38
56.8548	519.77
56.8693	538.00
56.8837	503.75
56.8981	541.65
56.9126	525.65
56.9270	523.86
56.9415	515.94
56.9559	537.67
56.9703	542.03
56.9848	558.81
56.9992	526.90
57.0137	516.04
57.0281	485.12
57.0425	510.67
57.0570	567.84
57.0714	533.80
57.0859	554.29
57.1003	537.76
57.1147	551.62
57.1292	535.91
57.1436	546.51
57.1581	539.46
57.1725	541.21
57.1869	516.80
57.2014	493.88
57.2158	511.35
57.2303	532.37
57.2447	527.29
57.2591	542.53
57.2736	536.38
57.2880	537.78
57.3025	556.41
57.3169	502.55
57.3313	525.68
57.3458	506.43
57.3602	539.74
57.3747	519.32
57.3891	542.08
57.4035	532.83
57.4180	524.09
57.4324	540.68
57.4469	514.40
57.4613	539.21
57.4757	552.05
57.4902	527.14
57.5046	510.60
57.5191	559.96
57.5335	522.34
57.5479	533.61
57.5624	534.31
57.5768	500.11
57.5913	533.59
57.6057	537.61
57.6201	547.83
57.6346	590.82
57.6490	580.82
57.6635	543.23
57.6779	551.70
57.6923	533.07
57.7068	548.36
57.7212	556.71
57.7357	564.68
57.7501	575.18
57.7645	581.12
57.7790	611.28
57.7934	643.75
57.8079	664.00
57.8223	632.20
57.8367	672.80
57.8512	740.46
57.8656	756.59
57.8801	751.51
57.8945	751.93
57.9089	740.52
57.9234	727.40
57.9378	674.32
57.9523	654.17
57.9667	634.72
57.9811	655.86
57.9956	621.79
58.0100	655.43
58.0245	671.87
58.0389	669.53
58.0533	644.64
58.0678	661.67
58.0822	661.17
58.0967	589.99
58.1111	563.67
58.1255	570.20
58.1400	545.22
58.1544	508.23
58.1689	554.05
58.1833	551.52
58.1977	542.74
58.2122	568.17
58.2266	557.57
58.2411	545.06
58.2555	571.08
58.2699	548.96
58.2844	547.84
58.2988	538.01
58.3133	565.49
58.3277	526.62
58.3421	537.74
58.3566	505.92
58.3710	523.70
58.3855	524.71
58.3999	531.33
58.4143	540.48
58.4288	557.09
58.4432	511.09
58.4577	546.64
58.4721	543.95
58.4865	537.25
58.5010	517.90
58.5154	493.05
58.5299	509.20
58.5443	552.40
58.5587	574.51
58.5732	535.30
58.5876	524.86
58.6021	544.36
58.6165	524.99
58.6309	533.79
58.6454	495.86
58.6598	500.13
58.6743	512.97
58.6887	506.57
58.7031	547.97
58.7176	532.66
58.7320	525.73
58.7465	557.18
58.7609	541.58
58.7753	540.11
58.7898	497.60
58.8042	544.24
58.8187	519.08
58.8331	511.34
58.8475	509.55
58.8620	536.65
58.8764	559.05
58.8909	536.40
58.9053	513.07
58.9197	487.94
58.9342	510.84
58.9486	500.35
58.9631	513.22
58.9775	531.41
58.9919	517.37
59.0064	504.99
59.0208	546.83
59.0353	527.84
59.0497	535.56
59.0641	553.04
59.0786	537.41
59.0930	547.45
59.1075	544.55
59.1219	540.80
59.1363	558.18
59.1508	570.85
59.1652	565.90
59.1797	521.97
59.1941	523.88
59.2085	519.41
59.2230	552.73
59.2374	539.80
59.2519	499.89
59.2663	523.32
59.2807	557.24
59.2952	535.89
59.3096	550.93
59.3241	552.74
59.3385	574.60
59.3529	573.01
59.3674	568.79
59.3818	555.04
59.3963	551.99
59.4107	542.49
59.4251	547.02
59.4396	569.82
59.4540	570.02
59.4685	579.71
59.4829	559.47
59.4973	563.87
59.5118	544.45
59.5262	525.64
59.5407	529.08
59.5551	545.44
59.5695	578.31
59.5840	565.60
59.5984	526.49
59.6129	532.49
59.6273	554.30
59.6417	544.49
59.6562	512.72
59.6706	513.30
59.6851	540.80
59.6995	521.89
59.7139	524.34
59.7284	555.68
59.7428	519.03
59.7573	517.90
59.7717	552.31
59.7861	560.56
59.8006	557.40
59.8150	559.57
59.8295	523.16
59.8439	524.57
59.8583	552.76
59.8728	558.10
59.8872	496.13
59.9017	547.50
59.9161	563.74
59.9305	518.77
59.9450	509.87
59.9594	514.01
59.9739	562.71
59.9883	582.38
60.0027	552.62
60.0172	553.99
60.0316	506.30
60.0461	524.52
60.0605	556.06
60.0750	528.35
60.0894	557.06
60.1038	533.66
60.1183	535.61
60.1327	529.28
60.1472	510.04
60.1616	546.33
60.1760	514.36
60.1905	493.14
60.2049	511.99
60.2194	537.38
60.2338	536.32
60.2482	515.97
60.2627	512.80
60.2771	531.77
60.2916	527.88
60.3060	555.90
60.3204	551.49
60.3349	527.01
60.3493	577.79
60.3638	539.36
60.3782	512.50
60.3926	528.04
60.4071	509.54
60.4215	515.22
60.4360	538.23
60.4504	544.05
60.4648	540.01
60.4793	549.15
60.4937	527.05
60.5082	503.29
60.5226	513.02
60.5370	532.16
60.5515	531.13
60.5659	529.00
60.5804	528.40
60.5948	482.89
60.6092	546.90
60.6237	485.28
60.6381	515.75
60.6526	524.85
60.6670	547.37
60.6814	535.30
60.6959	526.16
60.7103	554.19
60.7248	537.27
60.7392	546.20
60.7536	544.66
60.7681	514.16
60.7825	525.69
60.7970	527.74
60.8114	525.94
60.8258	548.11
60.8403	507.62
60.8547	519.27
60.8692	554.41
60.8836	517.36
60.8980	546.96
60.9125	523.63
60.9269	516.66
60.9414	588.18
60.9558	514.93
60.9702	528.35
60.9847	552.60
60.9991	547.77
61.0136	514.78
61.0280	550.60
61.0424	545.96
61.0569	520.95
61.0713	532.46
61.0858	550.08
61.1002	550.39
61.1146	556.34
61.1291	578.71
61.1435	530.45
61.1580	502.14
61.1724	516.15
61.1868	538.41
61.2013	519.35
61.2157	551.77
61.2302	516.73
61.2446	568.24
61.2590	547.29
61.2735	559.71
61.2879	496.69
61.3024	520.97
61.3168	548.39
61.3312	558.21
61.3457	542.75
61.3601	540.30
61.3746	532.32
61.3890	523.84
61.4034	550.61
61.4179	536.96
61.4323	552.80
61.4468	544.35
61.4612	549.90
61.4756	520.52
61.4901	546.81
61.5045	549.88
61.5190	514.70
61.5334	552.26
61.5478	567.74
61.5623	559.37
61.5767	507.19
61.5912	534.16
61.6056	524.61
61.6200	517.12
61.6345	486.91
61.6489	508.28
61.6634	521.39
61.6778	533.67
61.6922	531.19
61.7067	552.87
61.7211	562.62
61.7356	525.16
61.7500	561.29
61.7644	539.81
61.7789	543.56
61.7933	519.23
61.8078	557.34
61.8222	549.20
61.8366	540.71
61.8511	529.66
61.8655	547.06
61.8800	571.36
61.8944	572.11
61.9088	534.27
61.9233	536.97
61.9377	580.38
61.9522	530.39
61.9666	539.81
61.9810	583.52
61.9955	550.91
62.0099	560.07
62.0244	555.41
62.0388	535.95
62.0532	527.41
62.0677	537.88
62.0821	572.49
62.0966	577.26
62.1110	560.43
62.1254	574.49
62.1399	568.84
62.1543	556.78
62.1688	552.87
62.1832	551.50
62.1976	550.27
62.2121	555.11
62.2265	550.36
62.2410	584.08
62.2554	562.79
62.2698	567.13
62.2843	580.62
62.2987	537.37
62.3132	558.62
62.3276	568.76
62.3420	580.97
62.3565	573.83
62.3709	536.39
62.3854	580.70
62.3998	555.93
62.4142	538.70
62.4287	557.70
62.4431	528.48
62.4576	517.00
62.4720	580.87
62.4864	539.07
62.5009	528.08
62.5153	548.70
62.5298	542.23
62.5442	562.96
62.5586	555.95
62.5731	526.87
62.5875	594.76
62.6020	548.38
62.6164	540.96
62.6308	572.79
62.6453	532.26
62.6597	546.72
62.6742	562.63
62.6886	557.26
62.7030	564.76
62.7175	555.57
62.7319	553.03
62.7464	526.58
62.7608	517.89
62.7752	561.22
62.7897	606.31
62.8041	581.21
62.8186	556.45
62.8330	564.41
62.8474	543.74
62.8619	560.60
62.8763	566.92
62.8908	532.63
62.9052	542.90
62.9196	550.40
62.9341	525.72
62.9485	559.97
62.9630	542.72
62.9774	546.23
62.9918	588.30
63.0063	584.15
63.0207	582.19
63.0352	566.79
63.0496	567.88
63.0640	573.67
63.0785	572.51
63.0929	575.45
63.1074	578.09
63.1218	586.04
63.1362	579.34
63.1507	555.08
63.1651	601.44
63.1796	546.03
63.1940	547.91
63.2084	556.30
63.2229	580.49
63.2373	592.75
63.2518	559.51
63.2662	586.02
63.2806	597.25
63.2951	587.14
63.3095	596.35
63.3240	580.89
63.3384	585.00
63.3528	581.04
63.3673	620.17
63.3817	596.30
63.3962	584.34
63.4106	583.54
63.4250	636.24
63.4395	653.24
63.4539	670.09
63.4684	723.47
63.4828	741.60
63.4972	758.27
63.5117	770.88
63.5261	840.85
63.5406	919.80
63.5550	955.40
63.5694	1009.90
63.5839	985.27
63.5983	917.42
63.6128	878.58
63.6272	797.26
63.6416	771.13
63.6561	768.69
63.6705	750.77
63.6850	780.95
63.6994	796.39
63.7138	799.15
63.7283	794.56
63.7427	829.41
63.7572	790.51
63.7716	767.73
63.7861	799.66
63.8005	766.96
63.8149	749.62
63.8294	706.26
63.8438	642.84
63.8583	656.06
63.8727	637.27
63.8871	645.67
63.9016	629.15
63.9160	631.78
63.9305	579.63
63.9449	612.29
63.9593	634.43
63.9738	621.03
63.9882	622.26
64.0027	596.73
64.0171	608.15
64.0315	614.79
64.0460	600.61
64.0604	606.12
64.0749	590.31
64.0893	615.77
64.1037	583.77
64.1182	608.85
64.1326	579.78
64.1471	592.90
64.1615	595.30
64.1759	587.56
64.1904	596.50
64.2048	584.28
64.2193	590.89
64.2337	596.37
64.2481	641.56
64.2626	585.29
64.2770	604.31
64.2915	593.03
64.3059	610.99
64.3203	591.78
64.3348	581.27
64.3492	572.41
64.3637	588.69
64.3781	629.68
64.3925	606.72
64.4070	622.42
64.4214	596.60
64.4359	607.65
64.4503	626.24
64.4647	632.77
64.4792	616.43
64.4936	628.40
64.5081	602.51
64.5225	598.69
64.5369	619.18
64.5514	652.56
64.5658	592.01
64.5803	633.92
64.5947	631.16
64.6091	659.05
64.6236	612.69
64.6380	635.09
64.6525	674.15
64.6669	671.03
64.6813	675.38
64.6958	666.49
64.7102	689.13
64.7247	703.26
64.7391	687.40
64.7535	699.60
64.7680	691.48
64.7824	743.41
64.7969	686.25
64.8113	727.13
64.8257	736.04
64.8402	825.41
64.8546	851.82
64.8691	799.32
64.8835	875.80
64.8979	830.38
64.9124	857.61
64.9268	906.11
64.9413	961.56
64.9557	904.38
64.9701	976.64
64.9846	1029.51
64.9990	1134.81
65.0135	1233.95
65.0279	1420.99
65.0423	1642.59
65.0568	1985.32
65.0712	2500.92
65.0857	3251.69
65.1001	4229.45
65.1145	5788.75
65.1290	7719.55
65.1434	9152.66
65.1579	10791.59
65.1723	11400.73
65.1867	11001.42
65.2012	9953.46
65.2156	8410.06
65.2301	6476.64
65.2445	5184.41
65.2589	4432.58
65.2734	4067.61
65.2878	4421.56
65.3023	4800.49
65.3167	5652.51
65.3311	6390.07
65.3456	6876.26
65.3600	6899.75
65.3745	6380.21
65.3889	5328.34
65.4033	4328.07
65.4178	3519.34
65.4322	2739.64
65.4467	2123.01
65.4611	1664.10
65.4755	1445.91
65.4900	1242.59
65.5044	1105.07
65.5189	1072.96
65.5333	995.69
65.5477	947.61
65.5622	879.60
65.5766	876.92
65.5911	813.87
65.6055	754.40
65.6199	766.03
65.6344	799.58
65.6488	751.19
65.6633	708.23
65.6777	703.36
65.6921	696.87
65.7066	728.71
65.7210	688.07
65.7355	667.19
65.7499	706.54
65.7643	664.77
65.7788	672.94
65.7932	629.32
65.8077	663.75
65.8221	635.79
65.8365	653.80
65.8510	635.66
65.8654	656.44
65.8799	645.39
65.8943	666.55
65.9087	632.41
65.9232	614.74
65.9376	636.17
65.9521	647.04
65.9665	612.11
65.9809	628.88
65.9954	642.08
66.0098	629.85
66.0243	628.96
66.0387	609.69
66.0531	618.54
66.0676	634.41
66.0820	679.35
66.0965	638.73
66.1109	611.75
66.1253	606.36
66.1398	587.63
66.1542	562.24
66.1687	603.88
66.1831	594.07
66.1975	620.54
66.2120	615.94
66.2264	610.78
66.2409	607.61
66.2553	603.38
66.2697	615.00
66.2842	605.72
66.2986	626.00
66.3131	616.87
66.3275	627.37
66.3419	661.76
66.3564	594.89
66.3708	584.74
66.3853	611.94
66.3997	571.61
66.4141	562.53
66.4286	574.93
66.4430	545.84
66.4575	565.07
66.4719	597.54
66.4863	609.43
66.5008	598.78
66.5152	596.84
66.5297	596.23
66.5441	630.32
66.5585	540.78
66.5730	552.50
66.5874	569.87
66.6019	585.20
66.6163	605.19
66.6307	575.76
66.6452	602.07
66.6596	607.75
66.6741	555.42
66.6885	579.58
66.7029	566.82
66.7174	598.03
66.7318	585.33
66.7463	595.72
66.7607	566.10
66.7751	582.12
66.7896	630.19
66.8040	607.99
66.8185	595.41
66.8329	586.93
66.8473	586.59
66.8618	601.35
66.8762	586.24
66.8907	571.37
66.9051	560.62
66.9195	565.89
66.9340	588.27
66.9484	594.15
66.9629	601.63
66.9773	548.29
66.9917	544.15
67.0062	597.77
67.0206	593.31
67.0351	586.09
67.0495	569.27
67.0639	596.17
67.0784	632.64
67.0928	595.10
67.1073	563.26
67.1217	615.52
67.1361	583.73
67.1506	535.23
67.1650	568.01
67.1795	576.69
67.1939	545.07
67.2083	561.37
67.2228	567.80
67.2372	577.76
67.2517	569.55
67.2661	577.63
67.2805	556.72
67.2950	573.44
67.3094	604.11
67.3239	566.96
67.3383	564.04
67.3527	567.26
67.3672	611.61
67.3816	607.28
67.3961	607.38
67.4105	553.71
67.4250	588.15
67.4394	583.08
67.4538	568.94
67.4683	584.54
67.4827	608.89
67.4972	573.98
67.5116	536.29
67.5260	575.90
67.5405	580.86
67.5549	564.38
67.5694	599.03
67.5838	605.09
67.5982	571.07
67.6127	582.11
67.6271	568.94
67.6416	591.17
67.6560	557.68
67.6704	569.96
67.6849	550.25
67.6993	549.81
67.7138	558.48
67.7282	562.13
67.7426	528.74
67.7571	583.67
67.7715	547.60
67.7860	586.87
67.8004	573.15
67.8148	607.46
67.8293	576.20
67.8437	572.72
67.8582	570.89
67.8726	567.67
67.8870	558.54
67.9015	553.11
67.9159	568.19
67.9304	549.43
67.9448	579.45
67.9592	532.57
67.9737	541.54
67.9881	581.77
68.0026	577.76
68.0170	602.53
68.0314	601.92
68.0459	547.66
68.0603	582.07
68.0748	587.41
68.0892	594.86
68.1036	572.73
68.1181	545.87
68.1325	575.99
68.1470	561.93
68.1614	599.91
68.1758	582.59
68.1903	527.20
68.2047	543.38
68.2192	546.75
68.2336	558.18
68.2480	607.41
68.2625	551.29
68.2769	562.93
68.2914	569.07
68.3058	546.74
68.3202	582.66
68.3347	582.68
68.3491	590.75
68.3636	579.59
68.3780	577.44
68.3924	578.39
68.4069	578.30
68.4213	587.09
68.4358	573.68
68.4502	565.47
68.4646	551.77
68.4791	574.68
68.4935	552.63
68.5080	547.70
68.5224	566.13
68.5368	618.78
68.5513	557.43
68.5657	557.47
68.5802	551.53
68.5946	530.40
68.6090	539.83
68.6235	538.12
68.6379	583.22
68.6524	532.08
68.6668	541.73
68.6812	557.26
68.6957	553.79
68.7101	560.69
68.7246	517.24
68.7390	549.01
68.7534	576.17
68.7679	564.01
68.7823	564.80
68.7968	542.33
68.8112	562.69
68.8256	540.78
68.8401	605.52
68.8545	588.14
68.8690	565.89
68.8834	564.10
68.8978	584.39
68.9123	575.19
68.9267	522.75
68.9412	625.22
68.9556	567.22
68.9700	542.60
68.9845	521.97
68.9989	550.53
69.0134	576.15
69.0278	508.25
69.0422	552.95
69.0567	528.37
69.0711	559.16
69.0856	527.75
69.1000	546.58
69.1144	586.31
69.1289	576.73
69.1433	580.16
69.1578	582.63
69.1722	573.41
69.1866	609.67
69.2011	528.60
69.2155	592.13
69.2300	561.17
69.2444	545.29
69.2588	629.61
69.2733	607.71
69.2877	537.17
69.3022	583.03
69.3166	601.34
69.3310	557.48
69.3455	593.25
69.3599	565.29
69.3744	566.66
69.3888	549.22
69.4032	566.02
69.4177	607.51
69.4321	592.64
69.4466	578.74
69.4610	602.88
69.4754	593.14
69.4899	569.13
69.5043	561.58
69.5188	596.88
69.5332	596.96
69.5476	591.40
69.5621	555.00
69.5765	545.97
69.5910	545.96
69.6054	576.10
69.6198	606.97
69.6343	605.89
69.6487	551.27
69.6632	552.39
69.6776	535.39
69.6920	541.90
69.7065	622.28
69.7209	555.87
69.7354	579.73
69.7498	555.88
69.7642	558.08
69.7787	540.43
69.7931	582.02
69.8076	606.99
69.8220	575.10
69.8364	579.17
69.8509	542.00
69.8653	545.99
69.8798	542.23
69.8942	560.44
69.9086	557.78
69.9231	584.14
69.9375	556.57
69.9520	633.58
69.9664	598.12
69.9808	588.31
69.9953	589.11
70.0097	586.26
70.0242	618.84
70.0386	575.03
70.0530	564.73
70.0675	570.95
70.0819	554.06
70.0964	584.71
70.1108	580.25
70.1252	550.13
70.1397	612.79
70.1541	575.26
70.1686	571.88
70.1830	573.59
70.1974	558.67
70.2119	633.32
70.2263	589.22
70.2408	581.30
70.2552	608.34
70.2696	583.09
70.2841	537.23
70.2985	588.28
70.3130	586.46
70.3274	576.16
70.3418	590.45
70.3563	614.52
70.3707	538.84
70.3852	526.93
70.3996	535.82
70.4140	564.73
70.4285	604.73
70.4429	588.97
70.4574	578.25
70.4718	598.82
70.4862	587.34
70.5007	551.67
70.5151	586.51
70.5296	558.36
70.5440	521.05
70.5584	550.12
70.5729	569.55
70.5873	559.95
70.6018	521.10
70.6162	570.21
70.6306	600.70
70.6451	616.17
70.6595	593.08
70.6740	550.13
70.6884	568.88
70.7028	598.49
70.7173	560.64
70.7317	570.68
70.7462	613.33
70.7606	609.52
70.7750	574.44
70.7895	578.04
70.8039	572.82
70.8184	618.41
70.8328	586.10
70.8472	575.72
70.8617	588.89
70.8761	627.66
70.8906	570.22
70.9050	578.55
70.9194	595.66
70.9339	601.85
70.9483	596.12
70.9628	546.39
70.9772	502.02
70.9916	498.14
71.0061	533.79
71.0205	590.61
71.0350	621.33
71.0494	594.28
71.0638	594.09
71.0783	587.68
71.0927	587.34
71.1072	580.69
71.1216	585.09
71.1361	570.19
71.1505	576.75
71.1649	560.84
71.1794	548.71
71.1938	603.52
71.2083	593.27
71.2227	558.66
71.2371	540.60
71.2516	535.78
71.2660	598.03
71.2805	603.34
71.2949	560.43
71.3093	575.09
71.3238	562.48
71.3382	593.29
71.3527	567.58
71.3671	573.99
71.3815	578.38
71.3960	546.87
71.4104	541.54
71.4249	593.10
71.4393	584.93
71.4537	572.09
71.4682	553.70
71.4826	549.38
71.4971	560.88
71.5115	567.42
71.5259	594.19
71.5404	564.35
71.5548	551.93
71.5693	535.41
71.5837	513.29
71.5981	583.87
71.6126	569.72
71.6270	525.21
71.6415	580.91
71.6559	619.81
71.6703	595.95
71.6848	572.71
71.6992	592.57
71.7137	589.79
71.7281	607.28
71.7425	570.91
71.7570	546.94
71.7714	582.44
71.7859	577.42
71.8003	561.22
71.8147	580.94
71.8292	547.61
71.8436	507.36
71.8581	547.33
71.8725	592.40
71.8869	577.26
71.9014	632.47
71.9158	664.35
71.9303	655.82
71.9447	631.30
71.9591	566.86
71.9736	551.20
71.9880	542.25
72.0025	566.89
72.0169	598.90
72.0313	573.59
72.0458	549.45
72.0602	653.50
72.0747	692.18
72.0891	579.01
72.1035	523.10
72.1180	560.90
72.1324	617.18
72.1469	647.77
72.1613	611.45
72.1757	600.51
72.1902	608.66
72.2046	567.33
72.2191	509.92
72.2335	537.69
72.2479	543.50
72.2624	506.63
72.2768	595.06
72.2913	679.62
72.3057	620.24
72.3201	651.14
72.3346	596.74
72.3490	562.93
72.3635	557.46
72.3779	548.50
72.3923	498.56
72.4068	571.50
72.4212	587.87
72.4357	539.80
72.4501	568.29
72.4645	603.27
72.4790	615.95
72.4934	593.85
72.5079	614.07
72.5223	594.48
72.5367	590.21
72.5512	606.19
72.5656	567.51
72.5801	529.46
72.5945	526.20
72.6089	544.00
72.6234	610.15
72.6378	531.07
72.6523	505.00
72.6667	551.53
72.6811	541.88
72.6956	536.23
72.7100	588.78
72.7245	507.87
72.7389	597.38
72.7533	598.62
72.7678	540.59
72.7822	549.94
72.7967	582.31
72.8111	600.23
72.8255	612.37
72.8400	560.76
72.8544	482.94
72.8689	532.01
72.8833	480.48

Result vector
22.1120	533.99
22.1264	563.59
22.1409	537.65
22.1553	490.27
22.1697	553.25
22.1842	514.57
22.1986	448.95
22.2131	496.49
22.2275	571.64
22.2419	541.73
22.2564	538.30
22.2708	577.42
22.2853	596.91
22.2997	544.80
22.3141	554.43
22.3286	592.35
22.3430	578.51
22.3575	534.44
22.3719	549.86
22.3863	593.79
22.4008	516.12
22.4152	644.49
22.4297	650.61
22.4441	605.76
22.4585	558.99
22.4730	592.28
22.4874	676.03
22.5019	574.65
22.5163	590.56
22.5307	516.76
22.5452	552.43
22.5596	575.43
22.5741	580.19
22.5885	561.51
22.6029	585.67
22.6174	534.84
22.6318	537.86
22.6463	532.78
22.6607	536.69
22.6751	598.57
22.6896	495.49
22.7040	635.95
22.7185	536.75
22.7329	477.93
22.7473	526.12
22.7618	501.30
22.7762	508.97
22.7907	671.53
22.8051	647.63
22.8195	543.52
22.8340	547.71
22.8484	590.18
22.8629	728.69
22.8773	632.45
22.8917	578.02
22.9062	608.16
22.9206	529.21
22.9351	456.88
22.9495	593.88
22.9639	562.17
22.9784	577.62
22.9928	610.21
23.0073	521.93
23.0217	520.38
23.0361	544.38
23.0506	602.04
23.0650	599.51
23.0795	506.94
23.0939	536.77
23.1083	539.64
23.1228	553.70
23.1372	577.92
23.1517	508.73
23.1661	587.72
23.1806	603.30
23.1950	575.22
23.2094	555.23
23.2239	608.43
23.2383	588.95
23.2528	595.85
23.2672	560.37
23.2816	576.30
23.2961	583.14
23.3105	583.81
23.3250	534.03
23.3394	535.55
23.3538	614.00
23.3683	489.49
23.3827	548.40
23.3972	572.74
23.4116	570.07
23.4260	542.10
23.4405	561.20
23.4549	533.64
23.4694	630.80
23.4838	587.78
23.4982	562.67
23.5127	567.17
23.5271	511.88
23.5416	535.07
23.5560	531.59
23.5704	555.22
23.5849	629.87
23.5993	595.51
23.6138	572.36
23.6282	519.99
23.6426	540.12
23.6571	586.65
23.6715	586.51
23.6860	496.92
23.7004	580.58
23.7148	477.86
23.7293	555.66
23.7437	623.10
23.7582	562.96
23.7726	530.41
23.7870	506.90
23.8015	481.94
23.8159	584.95
23.8304	489.51
23.8448	524.08
23.8592	585.57
23.8737	591.88
23.8881	551.82
23.9026	593.16
23.9170	553.08
23.9314	573.92
23.9459	604.75
23.9603	538.76
23.9748	597.36
23.9892	586.54
24.0036	528.46
24.0181	545.43
24.0325	581.75
24.0470	594.51
24.0614	521.49
24.0758	522.50
24.0903	594.52
24.1047	567.07
24.1192	559.11
24.1336	571.36
24.1480	542.32
24.1625	550.33
24.1769	532.17
24.1914	547.55
24.2058	613.12
24.2202	567.94
24.2347	539.22
24.2491	599.43
24.2636	602.34
24.2780	605.34
24.2924	599.38
24.3069	607.85
24.3213	555.48
24.3358	532.99
24.3502	548.53
24.3646	510.90
24.3791	528.57
24.3935	516.03
24.4080	553.88
24.4224	633.60
24.4368	474.89
24.4513	545.12
24.4657	553.69
24.4802	560.32
24.4946	565.79
24.5090	528.63
24.5235	562.06
24.5379	524.98
24.5524	582.38
24.5668	535.84
24.5812	541.65
24.5957	580.20
24.6101	507.14
24.6246	537.49
24.6390	571.38
24.6534	554.11
24.6679	566.12
24.6823	512.52
24.6968	565.42
24.7112	544.97
24.7256	510.10
24.7401	492.73
24.7545	551.55
24.7690	530.40
24.7834	580.50
24.7978	523.84
24.8123	562.87
24.8267	530.52
24.8412	510.51
24.8556	530.52
24.8700	539.23
24.8845	512.81
24.8989	552.78
24.9134	556.64
24.9278	593.18
24.9422	516.40
24.9567	502.15
24.9711	541.45
24.9856	523.91
25.0000	535.46
25.0144	567.27
25.0289	528.63
25.0433	585.80
25.0578	566.07
25.0722	527.90
25.0866	507.10
25.1011	546.66
25.1155	531.75
25.1300	559.44
25.1444	511.02
25.1588	522.35
25.1733	503.42
25.1877	498.15
25.2022	508.39
25.2166	517.74
25.2310	539.06
25.2455	570.53
25.2599	517.10
25.2744	558.19
25.2888	555.43
25.3032	554.28
25.3177	563.69
25.3321	545.03
25.3466	532.89
25.3610	521.68
25.3754	552.72
25.3899	563.41
25.4043	559.70
25.4188	566.32
25.4332	508.36
25.4476	515.97
25.4621	524.17
25.4765	551.80
25.4910	527.05
25.5054	499.29
25.5198	493.85
25.5343	548.53
25.5487	508.48
25.5632	539.43
25.5776	587.84
25.5920	540.16
25.6065	487.57
25.6209	522.20
25.6354	562.76
25.6498	510.53
25.6642	535.57
25.6787	537.72
25.6931	526.81
25.7076	534.00
25.7220	539.60
25.7364	555.53
25.7509	556.65
25.7653	541.31
25.7798	553.93
25.7942	541.20
25.8086	552.40
25.8231	528.11
25.8375	534.65
25.8520	544.54
25.8664	550.33
25.8808	532.29
25.8953	539.24
25.9097	605.72
25.9242	553.34
25.9386	515.13
25.9530	537.11
25.9675	502.37
25.9819	537.78
25.9964	544.93
26.0108	521.95
26.0252	537.43
26.0397	517.45
26.0541	523.26
26.0686	532.05
26.0830	512.25
26.0974	535.66
26.1119	563.13
26.1263	528.21
26.1408	487.21
26.1552	520.28
26.1696	526.17
26.1841	522.97
26.1985	517.97
26.2130	528.07
26.2274	531.41
26.2418	536.24
26.2563	527.54
26.2707	506.88
26.2852	529.69
26.2996	555.44
26.3140	532.20
26.3285	516.15
26.3429	541.53
26.3574	504.95
26.3718	518.81
26.3862	540.85
26.4007	517.52
26.4151	486.12
26.4296	542.58
26.4440	548.78
26.4584	526.92
26.4729	532.90
26.4873	526.84
26.5018	555.23
26.5162	520.33
26.5306	527.18
26.5451	546.72
26.5595	515.14
26.5740	525.08
26.5884	558.72
26.6028	542.11
26.6173	525.35
26.6317	529.48
26.6462	519.42
26.6606	557.06
26.6750	559.36
26.6895	532.92
26.7039	543.33
26.7184	518.52
26.7328	539.14
26.7472	549.53
26.7617	551.50
26.7761	535.85
26.7906	507.43
26.8050	513.07
26.8194	521.99
26.8339	517.20
26.8483	542.51
26.8628	555.69
26.8772	564.69
26.8917	527.02
26.9061	515.37
26.9205	500.17
26.9350	535.81
26.9494	532.55
26.9639	517.72
26.9783	530.48
26.9927	516.41
27.0072	566.23
27.0216	564.03
27.0361	546.77
27.0505	508.38
27.0649	516.58
27.0794	552.91
27.0938	526.60
27.1083	485.45
27.1227	509.72
27.1371	537.49
27.1516	518.22
27.1660	525.51
27.1805	512.49
27.1949	501.07
27.2093	475.45
27.2238	532.66
27.2382	558.22
27.2527	526.90
27.2671	528.40
27.2815	570.09
27.2960	520.63
27.3104	538.61
27.3249	540.89
27.3393	511.77
27.3537	522.17
27.3682	523.70
27.3826	508.67
27.3971	529.18
27.4115	511.78
27.4259	541.36
27.4404	481.28
27.4548	494.50
27.4693	547.82
27.4837	546.96
27.4981	527.58
27.5126	525.59
27.5270	505.90
27.5415	497.03
27.5559	508.58
27.5703	548.80
27.5848	532.12
27.5992	536.29
27.6137	504.73
27.6281	539.07
27.6425	543.02
27.6570	521.17
27.6714	526.16
27.6859	501.84
27.7003	523.72
27.7147	490.27
27.7292	528.48
27.7436	538.64
27.7581	544.70
27.7725	527.74
27.7869	535.96
27.8014	512.32
27.8158	506.70
27.8303	497.25
27.8447	544.23
27.8591	551.05
27.8736	519.98
27.8880	504.02
27.9025	544.15
27.9169	558.13
27.9313	508.52
27.9458	516.05
27.9602	528.74
27.9747	515.68
27.9891	501.17
28.0035	514.54
28.0180	538.86
28.0324	533.21
28.0469	514.97
28.0613	514.49
28.0757	510.23
28.0902	549.78
28.1046	497.39
28.1191	498.53
28.1335	555.98
28.1479	514.06
28.1624	527.03
28.1768	526.84
28.1913	516.57
28.2057	513.05
28.2201	482.49
28.2346	511.43
28.2490	530.61
28.2635	518.56
28.2779	496.73
28.2923	475.50
28.3068	489.10
28.3212	508.90
28.3357	525.83
28.3501	521.41
28.3645	506.15
28.3790	501.84
28.3934	486.30
28.4079	519.74
28.4223	534.28
28.4367	523.30
28.4512	509.33
28.4656	503.12
28.4801	509.15
28.4945	521.07
28.5089	522.19
28.5234	477.72
28.5378	512.73
28.5523	518.16
28.5667	498.07
28.5811	500.08
28.5956	521.06
28.6100	495.32
28.6245	503.95
28.6389	495.59
28.6533	531.30
28.6678	490.83
28.6822	474.77
28.6967	496.83
28.7111	536.51
28.7255	512.85
28.7400	501.64
28.7544	501.97
28.7689	504.33
28.7833	511.68
28.7977	519.14
28.8122	538.09
28.8266	531.23
28.8411	526.53
28.8555	515.68
28.8699	504.50
28.8844	493.91
28.8988	549.24
28.9133	516.61
28.9277	500.45
28.9421	492.13
28.9566	477.83
28.9710	530.77
28.9855	516.52
28.9999	470.53
29.0143	504.08
29.0288	540.87
29.0432	514.55
29.0577	541.07
29.0721	518.45
29.0865	541.75
29.1010	582.51
29.1154	473.14
29.1299	517.67
29.1443	498.76
29.1587	495.64
29.1732	480.36
29.1876	496.32
29.2021	504.55
29.2165	529.57
29.2309	514.50
29.2454	527.80
29.2598	532.59
29.2743	495.59
29.2887	532.29
29.3031	503.15
29.3176	490.25
29.3320	509.85
29.3465	516.10
29.3609	496.78
29.3753	516.63
29.3898	516.46
29.4042	496.33
29.4187	458.08
29.4331	499.82
29.4475	509.92
29.4620	527.64
29.4764	532.20
29.4909	542.20
29.5053	525.29
29.5197	518.16
29.5342	506.52
29.5486	520.12
29.5631	536.95
29.5775	504.50
29.5919	513.15
29.6064	508.10
29.6208	528.77
29.6353	507.87
29.6497	516.76
29.6641	492.72
29.6786	483.65
29.6930	477.68
29.7075	510.67
29.7219	526.79
29.7363	471.66
29.7508	480.55
29.7652	489.71
29.7797	499.82
29.7941	490.31
29.8085	502.26
29.8230	493.79
29.8374	499.15
29.8519	509.85
29.8663	516.74
29.8807	483.00
29.8952	525.76
29.9096	520.46
29.9241	513.73
29.9385	492.44
29.9529	481.09
29.9674	523.42
29.9818	485.34
29.9963	478.75
30.0107	449.65
30.0251	510.31
30.0396	509.60
30.0540	488.02
30.0685	485.69
30.0829	491.80
30.0973	492.43
30.1118	490.29
30.1262	498.23
30.1407	516.07
30.1551	520.09
30.1695	528.50
30.1840	498.37
30.1984	506.24
30.2129	492.82
30.2273	531.62
30.2417	530.95
30.2562	534.59
30.2706	521.61
30.2851	517.95
30.2995	514.88
30.3139	515.21
30.3284	531.26
30.3428	532.08
30.3573	497.39
30.3717	507.97
30.3861	529.51
30.4006	536.99
30.4150	532.90
30.4295	538.63
30.4439	548.75
30.4583	564.21
30.4728	639.32
30.4872	579.21
30.5017	583.49
30.5161	679.55
30.5305	684.31
30.5450	708.35
30.5594	749.60
30.5739	767.12
30.5883	749.61
30.6028	726.51
30.6172	719.84
30.6316	708.08
30.6461	673.26
30.6605	672.73
30.6750	638.34
30.6894	610.79
30.7038	577.77
30.7183	597.16
30.7327	583.46
30.7472	574.51
30.7616	542.87
30.7760	519.42
30.7905	561.03
30.8049	522.61
30.8194	495.75
30.8338	539.20
30.8482	506.82
30.8627	528.21
30.8771	514.22
30.8916	501.94
30.9060	515.38
30.9204	521.12
30.9349	517.45
30.9493	539.31
30.9638	528.72
30.9782	496.82
30.9926	473.28
31.0071	471.89
31.0215	502.84
31.0360	505.78
31.0504	503.54
31.0648	515.36
31.0793	513.52
31.0937	520.20
31.1082	521.10
31.1226	558.72
31.1370	511.22
31.1515	467.42
31.1659	490.18
31.1804	534.79
31.1948	538.64
31.2092	532.19
31.2237	510.29
31.2381	531.72
31.2526	530.47
31.2670	533.29
31.2814	523.84
31.2959	509.96
31.3103	526.33
31.3248	537.72
31.3392	535.04
31.3536	526.82
31.3681	529.25
31.3825	507.03
31.3970	505.88
31.4114	507.77
31.4258	504.09
31.4403	517.37
31.4547	501.11
31.4692	507.15
31.4836	525.47
31.4980	498.63
31.5125	489.47
31.5269	512.40
31.5414	513.83
31.5558	502.02
31.5702	502.59
31.5847	514.85
31.5991	529.86
31.6136	499.63
31.6280	488.06
31.6424	507.29
31.6569	497.74
31.6713	496.40
31.6858	483.40
31.7002	487.82
31.7146	544.55
31.7291	507.47
31.7435	502.47
31.7580	505.62
31.7724	495.30
31.7868	548.18
31.8013	512.38
31.8157	529.75
31.8302	521.62
31.8446	502.72
31.8590	524.09
31.8735	489.84
31.8879	487.09
31.9024	532.41
31.9168	530.96
31.9312	534.45
31.9457	515.17
31.9601	497.51
31.9746	510.70
31.9890	517.03
32.0034	511.38
32.0179	501.75
32.0323	512.09
32.0468	486.34
32.0612	489.40
32.0756	506.20
32.0901	517.45
32.1045	505.32
32.1190	486.44
32.1334	504.41
32.1478	487.75
32.1623	526.77
32.1767	516.71
32.1912	482.52
32.2056	508.07
32.2200	492.12
32.2345	489.97
32.2489	516.89
32.2634	511.68
32.2778	540.41
32.2922	503.80
32.3067	520.54
32.3211	517.89
32.3356	511.97
32.3500	506.16
32.3644	497.00
32.3789	505.32
32.3933	458.40
32.4078	478.85
32.4222	517.00
32.4366	522.92
32.4511	479.53
32.4655	501.24
32.4800	503.99
32.4944	499.77
32.5088	503.51
32.5233	498.91
32.5377	510.02
32.5522	517.54
32.5666	501.10
32.5810	477.67
32.5955	488.12
32.6099	504.59
32.6244	501.78
32.6388	505.08
32.6532	480.01
32.6677	500.88
32.6821	494.92
32.6966	455.74
32.7110	493.85
32.7254	484.73
32.7399	499.11
32.7543	510.69
32.7688	492.06
32.7832	514.99
32.7976	514.28
32.8121	543.78
32.8265	509.62
32.8410	508.61
32.8554	528.45
32.8698	545.61
32.8843	527.75
32.8987	547.41
32.9132	536.46
32.9276	510.29
32.9420	500.23
32.9565	518.13
32.9709	479.42
32.9854	516.86
32.9998	499.23
33.0142	452.58
33.0287	525.37
33.0431	502.04
33.0576	502.93
33.0720	470.43
33.0864	474.44
33.1009	524.29
33.1153	518.23
33.1298	525.33
33.1442	510.90
33.1586	477.36
33.1731	489.47
33.1875	470.77
33.2020	496.49
33.2164	468.31
33.2308	450.28
33.2453	456.37
33.2597	495.75
33.2742	512.77
33.2886	489.82
33.3030	518.15
33.3175	513.23
33.3319	504.12
33.3464	510.30
33.3608	521.27
33.3752	499.68
33.3897	512.81
33.4041	488.94
33.4186	517.26
33.4330	525.36
33.4474	517.95
33.4619	492.86
33.4763	497.61
33.4908	489.38
33.5052	489.78
33.5196	534.22
33.5341	529.62
33.5485	513.74
33.5630	508.20
33.5774	499.04
33.5918	512.02
33.6063	543.14
33.6207	524.24
33.6352	532.97
33.6496	516.83
33.6640	530.21
33.6785	515.44
33.6929	524.40
33.7074	490.80
33.7218	508.11
33.7362	506.72
33.7507	505.13
33.7651	484.04
33.7796	518.40
33.7940	492.36
33.8084	479.46
33.8229	469.32
33.8373	520.81
33.8518	519.65
33.8662	515.75
33.8806	471.58
33.8951	505.50
33.9095	499.17
33.9240	512.74
33.9384	492.53
33.9528	519.36
33.9673	477.00
33.9817	482.88
33.9962	500.60
34.0106	526.76
34.0250	508.18
34.0395	494.38
34.0539	509.77
34.0684	488.84
34.0828	497.08
34.0972	537.16
34.1117	545.07
34.1261	512.47
34.1406	485.40
34.1550	510.04
34.1694	520.80
34.1839	513.90
34.1983	482.56
34.2128	493.63
34.2272	500.75
34.2417	520.68
34.2561	518.14
34.2705	504.49
34.2850	501.92
34.2994	507.16
34.3139	495.45
34.3283	496.64
34.3427	547.01
34.3572	496.14
34.3716	511.36
34.3861	477.83
34.4005	495.51
34.4149	506.02
34.4294	515.42
34.4438	477.42
34.4583	474.27
34.4727	492.52
34.4871	477.56
34.5016	471.65
34.5160	513.81
34.5305	500.29
34.5449	525.00
34.5593	508.16
34.5738	473.78
34.5882	522.76
34.6027	523.79
34.6171	519.38
34.6315	460.81
34.6460	508.86
34.6604	512.17
34.6749	518.04
34.6893	461.73
34.7037	528.98
34.7182	539.22
34.7326	486.78
34.7471	496.24
34.7615	478.85
34.7759	514.30
34.7904	536.64
34.8048	487.48
34.8193	501.44
34.8337	505.06
34.8481	510.65
34.8626	529.44
34.8770	523.63
34.8915	521.25
34.9059	567.99
34.9203	501.94
34.9348	456.98
34.9492	506.10
34.9637	513.51
34.9781	506.33
34.9925	496.14
35.0070	501.58
35.0214	539.27
35.0359	565.87
35.0503	518.79
35.0647	503.16
35.0792	517.73
35.0936	481.84
35.1081	502.71
35.1225	533.17
35.1369	532.91
35.1514	487.05
35.1658	522.36
35.1803	532.14
35.1947	527.03
35.2091	502.77
35.2236	473.69
35.2380	506.11
35.2525	514.65
35.2669	510.40
35.2813	514.42
35.2958	514.76
35.3102	543.97
35.3247	540.04
35.3391	521.83
35.3535	506.40
35.3680	509.33
35.3824	503.45
35.3969	480.63
35.4113	514.86
35.4257	527.44
35.4402	551.59
35.4546	528.41
35.4691	546.11
35.4835	539.21
35.4979	548.16
35.5124	545.65
35.5268	548.95
35.5413	531.84
35.5557	539.05
35.5701	531.03
35.5846	530.32
35.5990	563.56
35.6135	540.80
35.6279	540.57
35.6423	511.66
35.6568	527.49
35.6712	529.01
35.6857	564.82
35.7001	693.44
35.7145	746.92
35.7290	743.44
35.7434	650.19
35.7579	595.93
35.7723	606.55
35.7867	663.07
35.8012	727.44
35.8156	750.90
35.8301	713.02
35.8445	706.59
35.8589	769.03
35.8734	889.32
35.8878	950.84
35.9023	1100.44
35.9167	1139.61
35.9311	1298.71
35.9456	1551.55
35.9600	1852.52
35.9745	1922.84
35.9889	2303.93
36.0033	2688.90
36.0178	3005.02
36.0322	3194.54
36.0467	2723.28
36.0611	2222.62
36.0755	2002.56
36.0900	2194.61
36.1044	2214.10
36.1189	1811.66
36.1333	1377.04
36.1477	1081.46
36.1622	1005.76
36.1766	951.54
36.1911	856.87
36.2055	746.62
36.2199	705.89
36.2344	758.54
36.2488	668.14
36.2633	567.41
36.2777	566.82
36.2921	551.40
36.3066	565.28
36.3210	546.48
36.3355	553.83
36.3499	533.47
36.3643	530.16
36.3788	540.60
36.3932	514.19
36.4077	499.79
36.4221	528.49
36.4365	509.03
36.4510	516.89
36.4654	520.06
36.4799	544.27
36.4943	508.19
36.5087	519.29
36.5232	532.64
36.5376	514.24
36.5521	554.54
36.5665	511.19
36.5809	546.38
36.5954	531.18
36.6098	553.53
36.6243	550.35
36.6387	538.97
36.6531	528.25
36.6676	519.91
36.6820	500.85
36.6965	501.51
36.7109	575.20
36.7253	523.24
36.7398	499.85
36.7542	470.43
36.7687	510.91
36.7831	543.46
36.7975	537.58
36.8120	565.11
36.8264	546.61
36.8409	588.72
36.8553	575.28
36.8697	552.23
36.8842	608.90
36.8986	599.42
36.9131	587.11
36.9275	553.11
36.9419	564.05
36.9564	571.31
36.9708	594.15
36.9853	570.77
36.9997	567.12
37.0141	526.15
37.0286	598.28
37.0430	521.54
37.0575	540.45
37.0719	506.22
37.0863	507.60
37.1008	527.64
37.1152	521.12
37.1297	530.57
37.1441	517.68
37.1585	504.94
37.1730	505.36
37.1874	473.88
37.2019	502.32
37.2163	489.10
37.2307	477.91
37.2452	522.26
37.2596	526.10
37.2741	510.59
37.2885	524.31
37.3029	515.50
37.3174	478.46
37.3318	516.99
37.3463	531.69
37.3607	506.38
37.3751	509.04
37.3896	502.30
37.4040	503.21
37.4185	511.27
37.4329	493.97
37.4473	503.73
37.4618	524.31
37.4762	510.08
37.4907	514.88
37.5051	494.05
37.5195	512.24
37.5340	522.82
37.5484	508.52
37.5629	530.41
37.5773	510.17
37.5917	517.99
37.6062	502.39
37.6206	502.57
37.6351	498.66
37.6495	490.13
37.6639	520.00
37.6784	521.45
37.6928	492.47
37.7073	542.39
37.7217	493.76
37.7361	537.10
37.7506	551.41
37.7650	483.25
37.7795	496.51
37.7939	528.51
37.8083	502.91
37.8228	515.57
37.8372	502.89
37.8517	527.29
37.8661	508.08
37.8805	499.75
37.8950	508.84
37.9094	528.89
37.9239	490.81
37.9383	491.09
37.9528	514.34
37.9672	511.48
37.9816	516.91
37.9961	504.44
38.0105	478.29
38.0250	481.73
38.0394	478.52
38.0538	489.55
38.0683	525.11
38.0827	523.53
38.0972	521.20
38.1116	514.96
38.1260	539.94
38.1405	523.78
38.1549	479.52
38.1694	524.51
38.1838	521.36
38.1982	485.53
38.2127	512.32
38.2271	521.36
38.2416	527.80
38.2560	478.82
38.2704	474.72
38.2849	493.77
38.2993	503.69
38.3138	492.90
38.3282	499.07
38.3426	544.01
38.3571	538.42
38.3715	546.92
38.3860	526.86
38.4004	543.35
38.4148	541.66
38.4293	548.12
38.4437	528.32
38.4582	612.26
38.4726	660.82
38.4870	671.48
38.5015	715.79
38.5159	771.16
38.5304	826.51
38.5448	831.13
38.5592	784.78
38.5737	779.84
38.5881	760.25
38.6026	701.71
38.6170	716.55
38.6314	696.35
38.6459	648.84
38.6603	645.53
38.6748	603.11
38.6892	563.84
38.7036	572.02
38.7181	534.65
38.7325	508.32
38.7470	509.06
38.7614	518.37
38.7758	519.13
38.7903	555.42
38.8047	521.45
38.8192	531.46
38.8336	495.29
38.8480	477.49
38.8625	516.88
38.8769	497.65
38.8914	541.33
38.9058	552.33
38.9202	480.82
38.9347	472.88
38.9491	496.79
38.9636	500.98
38.9780	523.61
38.9924	512.97
39.0069	496.58
39.0213	533.43
39.0358	521.99
39.0502	483.20
39.0646	476.46
39.0791	490.30
39.0935	522.94
39.1080	505.90
39.1224	518.42
39.1368	536.50
39.1513	509.40
39.1657	489.76
39.1802	483.25
39.1946	500.95
39.2090	457.39
39.2235	486.89
39.2379	505.06
39.2524	511.93
39.2668	505.69
39.2812	493.11
39.2957	480.10
39.3101	472.31
39.3246	485.34
39.3390	529.87
39.3534	515.10
39.3679	503.91
39.3823	488.21
39.3968	509.22
39.4112	514.60
39.4256	518.71
39.4401	515.86
39.4545	506.92
39.4690	512.08
39.4834	544.50
39.4978	516.66
39.5123	489.18
39.5267	503.18
39.5412	499.23
39.5556	539.71
39.5700	499.80
39.5845	511.74
39.5989	502.54
39.6134	507.81
39.6278	509.33
39.6422	517.75
39.6567	471.55
39.6711	537.19
39.6856	499.41
39.7000	509.10
39.7144	508.90
39.7289	476.20
39.7433	507.92
39.7578	489.94
39.7722	494.93
39.7866	528.66
39.8011	514.41
39.8155	471.48
39.8300	492.98
39.8444	485.36
39.8588	507.60
39.8733	520.41
39.8877	483.80
39.9022	543.98
39.9166	496.38
39.9310	503.84
39.9455	504.47
39.9599	514.06
39.9744	495.78
39.9888	511.45
40.0032	490.77
40.0177	507.39
40.0321	496.44
40.0466	483.39
40.0610	515.73
40.0754	529.61
40.0899	535.02
40.1043	488.87
40.1188	488.40
40.1332	510.14
40.1476	469.42
40.1621	467.71
40.1765	495.56
40.1910	500.26
40.2054	511.46
40.2198	501.94
40.2343	486.21
40.2487	500.89
40.2632	524.25
40.2776	508.27
40.2920	488.63
40.3065	505.04
40.3209	485.00
40.3354	512.65
40.3498	474.56
40.3642	481.85
40.3787	474.48
40.3931	481.50
40.4076	510.53
40.4220	491.41
40.4364	517.20
40.4509	512.31
40.4653	507.75
40.4798	486.33
40.4942	514.39
40.5086	488.66
40.5231	500.52
40.5375	504.80
40.5520	486.64
40.5664	510.22
40.5808	453.24
40.5953	473.61
40.6097	479.43
40.6242	486.08
40.6386	509.00
40.6530	477.03
40.6675	500.69
40.6819	492.27
40.6964	486.23
40.7108	491.95
40.7252	481.60
40.7397	478.85
40.7541	500.12
40.7686	509.78
40.7830	495.05
40.7974	491.38
40.8119	486.36
40.8263	480.85
40.8408	497.96
40.8552	496.64
40.8696	501.04
40.8841	519.76
40.8985	496.76
40.9130	518.71
40.9274	506.94
40.9418	519.57
40.9563	477.56
40.9707	476.49
40.9852	476.91
40.9996	499.54
41.0140	484.95
41.0285	485.49
41.0429	497.65
41.0574	503.53
41.0718	465.81
41.0862	527.95
41.1007	501.12
41.1151	504.66
41.1296	528.60
41.1440	470.83
41.1584	465.60
41.1729	518.07
41.1873	511.28
41.2018	497.42
41.2162	484.25
41.2306	498.18
41.2451	508.70
41.2595	483.87
41.2740	485.71
41.2884	488.19
41.3028	507.16
41.3173	474.43
41.3317	502.42
41.3462	525.18
41.3606	477.85
41.3750	500.31
41.3895	520.83
41.4039	501.38
41.4184	495.95
41.4328	517.13
41.4472	513.17
41.4617	527.60
41.4761	486.10
41.4906	476.93
41.5050	453.15
41.5194	507.65
41.5339	470.08
41.5483	488.68
41.5628	455.74
41.5772	528.66
41.5916	506.13
41.6061	494.53
41.6205	509.38
41.6350	491.68
41.6494	499.69
41.6639	501.47
41.6783	508.73
41.6927	469.71
41.7072	477.67
41.7216	510.48
41.7361	492.37
41.7505	491.61
41.7649	487.19
41.7794	481.02
41.7938	517.36
41.8083	488.19
41.8227	517.62
41.8371	503.66
41.8516	515.43
41.8660	534.11
41.8805	518.22
41.8949	498.37
41.9093	554.33
41.9238	565.96
41.9382	542.08
41.9527	577.33
41.9671	512.85
41.9815	595.66
41.9960	547.77
42.0104	549.60
42.0249	552.66
42.0393	546.28
42.0537	559.07
42.0682	591.42
42.0826	543.85
42.0971	548.25
42.1115	582.07
42.1259	578.42
42.1404	560.52
42.1548	570.68
42.1693	632.00
42.1837	722.97
42.1981	709.66
42.2126	790.14
42.2270	919.02
42.2415	1074.81
42.2559	1172.90
42.2703	1306.52
42.2848	1528.56
42.2992	1582.68
42.3137	1602.75
42.3281	1614.43
42.3425	1573.57
42.3570	1495.27
42.3714	1409.02
42.3859	1347.97
42.4003	1319.46
42.4147	1295.24
42.4292	1221.97
42.4436	1113.17
42.4581	1033.49
42.4725	926.86
42.4869	834.46
42.5014	764.50
42.5158	710.74
42.5303	663.38
42.5447	622.91
42.5591	626.86
42.5736	570.60
42.5880	573.43
42.6025	563.60
42.6169	585.46
42.6313	540.69
42.6458	569.33
42.6602	556.72
42.6747	539.35
42.6891	536.07
42.7035	549.80
42.7180	547.74
42.7324	510.69
42.7469	509.83
42.7613	546.99
42.7757	547.77
42.7902	537.89
42.8046	525.84
42.8191	529.22
42.8335	517.22
42.8479	524.66
42.8624	535.18
42.8768	528.59
42.8913	517.78
42.9057	525.69
42.9201	498.34
42.9346	477.70
42.9490	509.85
42.9635	509.93
42.9779	492.26
42.9923	529.08
43.0068	524.83
43.0212	527.63
43.0357	496.96
43.0501	479.70
43.0645	504.07
43.0790	501.90
43.0934	519.94
43.1079	514.62
43.1223	530.69
43.1367	552.13
43.1512	492.47
43.1656	481.20
43.1801	502.44
43.1945	523.58
43.2089	496.31
43.2234	484.46
43.2378	507.60
43.2523	528.75
43.2667	514.65
43.2811	512.59
43.2956	511.39
43.3100	530.45
43.3245	526.12
43.3389	486.00
43.3533	523.59
43.3678	492.12
43.3822	512.40
43.3967	499.74
43.4111	488.05
43.4255	517.94
43.4400	499.34
43.4544	488.79
43.4689	504.35
43.4833	520.10
43.4977	517.14
43.5122	503.20
43.5266	498.18
43.5411	490.08
43.5555	545.08
43.5699	532.60
43.5844	522.37
43.5988	514.67
43.6133	498.31
43.6277	539.55
43.6421	512.45
43.6566	524.12
43.6710	547.16
43.6855	558.74
43.6999	578.78
43.7143	646.92
43.7288	631.58
43.7432	705.94
43.7577	683.92
43.7721	666.35
43.7865	625.03
43.8010	616.49
43.8154	604.27
43.8299	613.69
43.8443	612.60
43.8587	596.76
43.8732	583.00
43.8876	553.85
43.9021	605.14
43.9165	548.98
43.9309	554.90
43.9454	564.49
43.9598	526.45
43.9743	527.71
43.9887	543.39
44.0031	495.75
44.0176	522.61
44.0320	510.91
44.0465	528.18
44.0609	518.78
44.0753	522.62
44.0898	556.62
44.1042	494.93
44.1187	543.12
44.1331	526.18
44.1475	491.08
44.1620	517.67
44.1764	520.62
44.1909	541.13
44.2053	503.99
44.2197	509.83
44.2342	505.32
44.2486	506.23
44.2631	457.66
44.2775	512.84
44.2919	477.60
44.3064	486.92
44.3208	550.95
44.3353	568.79
44.3497	518.29
44.3641	497.15
44.3786	545.59
44.3930	548.94
44.4075	520.48
44.4219	561.11
44.4363	562.01
44.4508	570.34
44.4652	562.80
44.4797	582.32
44.4941	609.54
44.5085	586.77
44.5230	588.61
44.5374	550.10
44.5519	567.61
44.5663	597.22
44.5807	552.30
44.5952	594.59
44.6096	565.12
44.6241	570.47
44.6385	591.27
44.6529	577.55
44.6674	570.30
44.6818	577.22
44.6963	619.86
44.7107	681.76
44.7251	702.40
44.7396	705.34
44.7540	733.20
44.7685	832.27
44.7829	878.02
44.7973	869.12
44.8118	840.96
44.8262	804.40
44.8407	746.19
44.8551	726.81
44.8695	756.58
44.8840	747.12
44.8984	783.79
44.9129	737.14
44.9273	673.61
44.9417	689.23
44.9562	600.92
44.9706	557.51
44.9851	572.53
44.9995	539.57
45.0139	564.12
45.0284	514.29
45.0428	522.75
45.0573	525.79
45.0717	495.75
45.0861	534.26
45.1006	522.83
45.1150	539.63
45.1295	534.56
45.1439	508.74
45.1583	479.69
45.1728	484.00
45.1872	499.17
45.2017	489.78
45.2161	491.62
45.2305	513.34
45.2450	521.08
45.2594	484.49
45.2739	506.47
45.2883	491.53
45.3028	523.30
45.3172	522.64
45.3316	526.87
45.3461	507.68
45.3605	516.02
45.3750	504.14
45.3894	474.25
45.4038	456.00
45.4183	485.87
45.4327	541.80
45.4472	495.08
45.4616	527.35
45.4760	476.23
45.4905	508.37
45.5049	490.85
45.5194	486.30
45.5338	487.89
45.5482	511.59
45.5627	519.39
45.5771	485.93
45.5916	483.13
45.6060	495.85
45.6204	524.93
45.6349	523.04
45.6493	511.70
45.6638	519.78
45.6782	521.46
45.6926	512.11
45.7071	497.96
45.7215	539.37
45.7360	515.17
45.7504	512.10
45.7648	465.50
45.7793	515.33
45.7937	524.33
45.8082	504.12
45.8226	507.84
45.8370	528.10
45.8515	529.65
45.8659	527.78
45.8804	505.68
45.8948	474.78
45.9092	482.38
45.9237	487.49
45.9381	511.81
45.9526	508.85
45.9670	480.51
45.9814	463.62
45.9959	501.29
46.0103	471.54
46.0248	478.50
46.0392	490.96
46.0536	510.72
46.0681	528.11
46.0825	521.82
46.0970	493.30
46.1114	498.00
46.1258	481.98
46.1403	495.19
46.1547	514.54
46.1692	500.62
46.1836	495.17
46.1980	500.08
46.2125	494.36
46.2269	511.79
46.2414	519.09
46.2558	507.99
46.2702	484.77
46.2847	480.60
46.2991	483.26
46.3136	485.11
46.3280	510.67
46.3424	524.00
46.3569	492.54
46.3713	509.36
46.3858	471.67
46.4002	482.63
46.4146	473.65
46.4291	505.31
46.4435	483.48
46.4580	501.25
46.4724	507.96
46.4868	499.04
46.5013	465.96
46.5157	471.67
46.5302	488.91
46.5446	500.51
46.5590	503.34
46.5735	494.41
46.5879	490.37
46.6024	491.18
46.6168	483.64
46.6312	504.11
46.6457	519.59
46.6601	513.69
46.6746	525.71
46.6890	501.71
46.7034	512.37
46.7179	523.10
46.7323	494.54
46.7468	524.97
46.7612	509.57
46.7756	508.65
46.7901	496.64
46.8045	522.16
46.8190	522.95
46.8334	541.96
46.8478	491.81
46.8623	500.97
46.8767	501.77
46.8912	535.25
46.9056	516.09
46.9200	481.59
46.9345	520.21
46.9489	516.53
46.9634	498.98
46.9778	508.32
46.9922	515.53
47.0067	524.23
47.0211	494.70
47.0356	534.48
47.0500	498.50
47.0644	511.53
47.0789	550.20
47.0933	559.92
47.1078	528.31
47.1222	522.01
47.1366	502.57
47.1511	476.75
47.1655	459.11
47.1800	470.11
47.1944	495.25
47.2088	530.89
47.2233	501.24
47.2377	492.30
47.2522	497.90
47.2666	516.49
47.2810	533.79
47.2955	488.56
47.3099	493.19
47.3244	494.77
47.3388	510.67
47.3532	482.24
47.3677	511.56
47.3821	519.30
47.3966	483.04
47.4110	511.68
47.4254	482.47
47.4399	478.22
47.4543	498.01
47.4688	506.82
47.4832	502.27
47.4976	490.24
47.5121	482.26
47.5265	493.30
47.5410	493.67
47.5554	515.09
47.5698	515.07
47.5843	515.98
47.5987	495.10
47.6132	516.67
47.6276	481.06
47.6420	489.87
47.6565	512.77
47.6709	488.54
47.6854	519.43
47.6998	509.19
47.7142	497.06
47.7287	497.22
47.7431	527.95
47.7576	478.19
47.7720	480.45
47.7864	522.87
47.8009	529.96
47.8153	499.61
47.8298	490.53
47.8442	491.38
47.8586	513.02
47.8731	499.35
47.8875	490.13
47.9020	536.48
47.9164	491.31
47.9308	502.54
47.9453	559.42
47.9597	508.32
47.9742	532.84
47.9886	527.24
48.0030	479.94
48.0175	538.77
48.0319	540.61
48.0464	528.07
48.0608	540.33
48.0752	536.17
48.0897	514.92
48.1041	527.35
48.1186	533.02
48.1330	524.06
48.1474	515.76
48.1619	495.18
48.1763	532.63
48.1908	520.30
48.2052	510.32
48.2196	507.14
48.2341	506.94
48.2485	495.06
48.2630	513.08
48.2774	529.91
48.2918	519.88
48.3063	491.08
48.3207	490.69
48.3352	519.80
48.3496	537.17
48.3640	539.42
48.3785	521.04
48.3929	480.01
48.4074	489.16
48.4218	488.46
48.4362	472.15
48.4507	514.11
48.4651	518.25
48.4796	509.49
48.4940	523.75
48.5084	497.59
48.5229	507.54
48.5373	496.34
48.5518	506.13
48.5662	537.54
48.5806	541.97
48.5951	488.97
48.6095	504.43
48.6240	500.41
48.6384	531.16
48.6528	545.19
48.6673	496.07
48.6817	460.78
48.6962	508.29
48.7106	550.79
48.7250	567.09
48.7395	510.02
48.7539	519.63
48.7684	488.15
48.7828	520.43
48.7972	506.87
48.8117	523.04
48.8261	515.61
48.8406	536.44
48.8550	578.31
48.8694	542.29
48.8839	556.25
48.8983	554.11
48.9128	508.69
48.9272	499.60
48.9416	562.26
48.9561	573.01
48.9705	555.45
48.9850	573.08
48.9994	571.98
49.0139	616.62
49.0283	615.83
49.0427	570.35
49.0572	592.51
49.0716	645.68
49.0861	692.88
49.1005	679.31
49.1149	742.54
49.1294	730.34
49.1438	699.55
49.1583	810.05
49.1727	871.08
49.1871	915.12
49.2016	979.99
49.2160	1064.72
49.2305	1084.05
49.2449	1239.92
49.2593	1327.75
49.2738	1401.12
49.2882	1530.33
49.3027	1634.02
49.3171	1724.70
49.3315	1757.30
49.3460	1832.57
49.3604	1823.11
49.3749	1845.76
49.3893	1796.36
49.4037	1796.32
49.4182	1860.48
49.4326	1798.95
49.4471	1710.73
49.4615	1668.93
49.4759	1647.11
49.4904	1529.18
49.5048	1427.83
49.5193	1350.16
49.5337	1251.72
49.5481	1225.17
49.5626	1082.78
49.5770	1032.45
49.5915	973.89
49.6059	893.27
49.6203	862.06
49.6348	829.79
49.6492	761.20
49.6637	748.07
49.6781	697.44
49.6925	682.97
49.7070	708.76
49.7214	655.66
49.7359	601.87
49.7503	598.14
49.7647	583.80
49.7792	616.21
49.7936	572.55
49.8081	579.95
49.8225	586.10
49.8369	568.02
49.8514	558.63
49.8658	534.45
49.8803	536.44
49.8947	559.61
49.9091	549.44
49.9236	518.90
49.9380	535.20
49.9525	541.14
49.9669	519.18
49.9813	521.01
49.9958	532.76
50.0102	520.79
50.0247	536.56
50.0391	520.28
50.0535	550.23
50.0680	560.87
50.0824	546.76
50.0969	504.23
50.1113	524.37
50.1257	513.66
50.1402	525.70
50.1546	518.51
50.1691	534.29
50.1835	515.17
50.1979	478.74
50.2124	487.96
50.2268	545.82
50.2413	550.58
50.2557	569.59
50.2701	549.92
50.2846	532.11
50.2990	520.63
50.3135	514.21
50.3279	538.74
50.3423	519.61
50.3568	501.54
50.3712	522.82
50.3857	488.66
50.4001	482.84
50.4145	515.35
50.4290	527.18
50.4434	505.65
50.4579	522.13
50.4723	538.79
50.4867	487.54
50.5012	494.68
50.5156	519.17
50.5301	522.13
50.5445	491.31
50.5589	507.47
50.5734	506.33
50.5878	492.50
50.6023	525.97
50.6167	520.41
50.6311	515.08
50.6456	498.83
50.6600	502.17
50.6745	536.72
50.6889	485.54
50.7033	501.96
50.7178	544.47
50.7322	530.52
50.7467	509.92
50.7611	517.81
50.7755	507.59
50.7900	491.52
50.8044	520.04
50.8189	525.46
50.8333	521.99
50.8477	480.90
50.8622	493.48
50.8766	493.73
50.8911	505.48
50.9055	533.90
50.9199	513.17
50.9344	510.91
50.9488	507.26
50.9633	468.61
50.9777	493.00
50.9921	507.30
51.0066	478.59
51.0210	486.10
51.0355	538.39
51.0499	506.79
51.0643	490.89
51.0788	509.23
51.0932	524.61
51.1077	470.76
51.1221	523.77
51.1365	475.20
51.1510	482.03
51.1654	511.03
51.1799	505.30
51.1943	489.51
51.2087	496.45
51.2232	504.19
51.2376	527.14
51.2521	493.50
51.2665	491.67
51.2809	489.28
51.2954	452.47
51.3098	499.53
51.3243	517.76
51.3387	522.88
51.3531	516.40
51.3676	518.40
51.3820	495.17
51.3965	505.35
51.4109	501.62
51.4253	522.65
51.4398	545.55
51.4542	506.38
51.4687	508.95
51.4831	521.45
51.4975	513.65
51.5120	503.56
51.5264	485.31
51.5409	525.59
51.5553	526.37
51.5697	481.87
51.5842	475.39
51.5986	515.90
51.6131	506.78
51.6275	504.08
51.6419	535.14
51.6564	536.93
51.6708	527.37
51.6853	519.50
51.6997	492.11
51.7141	492.86
51.7286	499.01
51.7430	477.63
51.7575	508.80
51.7719	523.55
51.7863	531.28
51.8008	503.18
51.8152	506.34
51.8297	473.44
51.8441	487.47
51.8585	542.13
51.8730	517.54
51.8874	497.82
51.9019	526.35
51.9163	503.14
51.9307	509.10
51.9452	525.53
51.9596	493.50
51.9741	497.77
51.9885	508.38
52.0029	518.71
52.0174	519.92
52.0318	479.79
52.0463	507.30
52.0607	525.77
52.0751	478.36
52.0896	538.91
52.1040	541.40
52.1185	502.44
52.1329	491.36
52.1473	471.43
52.1618	475.12
52.1762	484.27
52.1907	493.11
52.2051	503.94
52.2195	514.53
52.2340	506.24
52.2484	499.21
52.2629	516.67
52.2773	474.45
52.2917	476.11
52.3062	475.06
52.3206	478.21
52.3351	500.63
52.3495	478.78
52.3639	513.28
52.3784	485.12
52.3928	493.19
52.4073	509.65
52.4217	516.78
52.4361	528.76
52.4506	511.18
52.4650	529.98
52.4795	513.58
52.4939	548.49
52.5083	491.74
52.5228	492.77
52.5372	552.62
52.5517	513.17
52.5661	500.07
52.5805	484.84
52.5950	483.32
52.6094	489.92
52.6239	494.06
52.6383	506.20
52.6527	505.24
52.6672	528.21
52.6816	529.50
52.6961	517.89
52.7105	481.83
52.7250	493.58
52.7394	493.92
52.7538	531.48
52.7683	489.23
52.7827	501.82
52.7972	479.93
52.8116	501.21
52.8260	509.12
52.8405	517.05
52.8549	520.00
52.8694	532.61
52.8838	492.65
52.8982	532.71
52.9127	521.51
52.9271	500.83
52.9416	503.56
52.9560	483.16
52.9704	496.66
52.9849	528.53
52.9993	495.47
53.0138	512.55
53.0282	500.29
53.0426	497.55
53.0571	526.95
53.0715	516.77
53.0860	525.79
53.1004	528.85
53.1148	529.41
53.1293	498.18
53.1437	462.15
53.1582	495.37
53.1726	494.85
53.1870	475.24
53.2015	512.99
53.2159	504.68
53.2304	519.83
53.2448	541.26
53.2592	491.96
53.2737	511.98
53.2881	479.15
53.3026	491.59
53.3170	546.92
53.3314	521.84
53.3459	532.94
53.3603	547.05
53.3748	555.63
53.3892	500.22
53.4036	508.19
53.4181	502.91
53.4325	526.61
53.4470	529.79
53.4614	521.58
53.4758	530.07
53.4903	495.95
53.5047	500.46
53.5192	494.31
53.5336	509.17
53.5480	549.41
53.5625	516.63
53.5769	473.04
53.5914	505.56
53.6058	507.49
53.6202	503.29
53.6347	531.30
53.6491	500.00
53.6636	518.31
53.6780	512.55
53.6924	493.58
53.7069	493.95
53.7213	510.34
53.7358	497.96
53.7502	538.87
53.7646	538.02
53.7791	491.44
53.7935	494.47
53.8080	517.97
53.8224	533.88
53.8368	542.47
53.8513	480.74
53.8657	507.24
53.8802	514.62
53.8946	544.02
53.9090	540.25
53.9235	513.75
53.9379	500.81
53.9524	540.07
53.9668	529.86
53.9812	493.92
53.9957	539.10
54.0101	527.45
54.0246	510.10
54.0390	496.61
54.0534	494.79
54.0679	533.49
54.0823	527.33
54.0968	519.76
54.1112	555.56
54.1256	564.78
54.1401	521.24
54.1545	545.74
54.1690	573.65
54.1834	546.67
54.1978	561.52
54.2123	580.02
54.2267	584.13
54.2412	603.37
54.2556	610.30
54.2700	597.03
54.2845	660.36
54.2989	623.39
54.3134	614.99
54.3278	622.45
54.3422	609.29
54.3567	616.24
54.3711	604.69
54.3856	592.30
54.4000	567.47
54.4144	595.03
54.4289	645.66
54.4433	609.48
54.4578	553.32
54.4722	579.89
54.4866	542.55
54.5011	545.89
54.5155	535.42
54.5300	557.03
54.5444	547.73
54.5588	539.61
54.5733	518.45
54.5877	532.24
54.6022	488.31
54.6166	475.63
54.6310	491.69
54.6455	545.55
54.6599	517.13
54.6744	511.27
54.6888	505.88
54.7032	551.85
54.7177	549.61
54.7321	511.06
54.7466	509.56
54.7610	499.60
54.7754	528.18
54.7899	533.07
54.8043	482.05
54.8188	500.03
54.8332	512.16
54.8476	527.60
54.8621	536.62
54.8765	536.71
54.8910	517.38
54.9054	514.18
54.9198	518.96
54.9343	528.22
54.9487	521.27
54.9632	501.15
54.9776	512.51
54.9920	522.43
55.0065	510.57
55.0209	536.66
55.0354	518.70
55.0498	496.49
55.0642	488.06
55.0787	502.65
55.0931	510.38
55.1076	503.68
55.1220	496.32
55.1364	490.61
55.1509	510.51
55.1653	518.00
55.1798	508.85
55.1942	517.45
55.2086	511.78
55.2231	516.54
55.2375	544.78
55.2520	522.41
55.2664	490.23
55.2808	519.97
55.2953	518.04
55.3097	510.01
55.3242	542.83
55.3386	558.21
55.3530	500.73
55.3675	522.14
55.3819	518.03
55.3964	502.40
55.4108	494.19
55.4252	498.91
55.4397	504.54
55.4541	493.78
55.4686	546.88
55.4830	523.86
55.4974	506.16
55.5119	490.54
55.5263	478.90
55.5408	511.78
55.5552	501.48
55.5696	518.65
55.5841	517.91
55.5985	530.13
55.6130	521.31
55.6274	499.58
55.6418	522.81
55.6563	535.58
55.6707	508.84
55.6852	502.25
55.6996	523.03
55.7140	534.99
55.7285	538.74
55.7429	530.76
55.7574	529.90
55.7718	502.96
55.7862	538.05
55.8007	513.02
55.8151	544.55
55.8296	548.39
55.8440	513.96
55.8584	508.52
55.8729	540.00
55.8873	530.30
55.9018	509.80
55.9162	530.78
55.9306	505.31
55.9451	516.52
55.9595	487.04
55.9740	537.20
55.9884	510.79
56.0028	536.13
56.0173	499.69
56.0317	514.34
56.0462	519.71
56.0606	541.88
56.0750	513.73
56.0895	507.24
56.1039	507.61
56.1184	568.19
56.1328	549.61
56.1472	488.61
56.1617	489.45
56.1761	512.01
56.1906	518.25
56.2050	504.00
56.2194	539.80
56.2339	533.29
56.2483	573.17
56.2628	533.80
56.2772	528.67
56.2916	537.18
56.3061	512.26
56.3205	509.66
56.3350	496.68
56.3494	501.37
56.3639	508.45
56.3783	526.18
56.3927	513.59
56.4072	491.28
56.4216	520.03
56.4361	529.00
56.4505	527.85
56.4649	517.35
56.4794	503.64
56.4938	561.87
56.5083	514.70
56.5227	544.58
56.5371	531.47
56.5516	505.62
56.5660	533.43
56.5805	530.23
56.5949	508.72
56.6093	509.21
56.6238	537.51
56.6382	487.71
56.6527	507.00
56.6671	547.73
56.6815	525.82
56.6960	523.07
56.7104	531.82
56.7249	515.80
56.7393	509.24
56.7537	518.17
56.7682	494.16
56.7826	524.73
56.7971	493.05
56.8115	528.11
56.8259	542.38
56.8404	526.38
56.8548	519.77
56.8693	538.00
56.8837	503.75
56.8981	541.65
56.9126	525.65
56.9270	523.86
56.9415	515.94
56.9559	537.67
56.9703	542.03
56.9848	558.81
56.9992	526.90
57.0137	516.04
57.0281	485.12
57.0425	510.67
57.0570	567.84
57.0714	533.80
57.0859	554.29
57.1003	537.76
57.1147	551.62
57.1292	535.91
57.1436	546.51
57.1581	539.46
57.1725	541.21
57.1869	516.80
57.2014	493.88
57.2158	511.35
57.2303	532.37
57.2447	527.29
57.2591	542.53
57.2736	536.38
57.2880	537.78
57.3025	556.41
57.3169	502.55
57.3313	525.68
57.3458	506.43
57.3602	539.74
57.3747	519.32
57.3891	542.08
57.4035	532.83
57.4180	524.09
57.4324	540.68
57.4469	514.40
57.4613	539.21
57.4757	552.05
57.4902	527.14
57.5046	510.60
57.5191	559.96
57.5335	522.34
57.5479	533.61
57.5624	534.31
57.5768	500.11
57.5913	533.59
57.6057	537.61
57.6201	547.83
57.6346	590.82
57.6490	580.82
57.6635	543.23
57.6779	551.70
57.6923	533.07
57.7068	548.36
57.7212	556.71
57.7357	564.68
57.7501	575.18
57.7645	581.12
57.7790	611.28
57.7934	643.75
57.8079	664.00
57.8223	632.20
57.8367	672.80
57.8512	740.46
57.8656	756.59
57.8801	751.51
57.8945	751.93
57.9089	740.52
57.9234	727.40
57.9378	674.32
57.9523	654.17
57.9667	634.72
57.9811	655.86
57.9956	621.79
58.0100	655.43
58.0245	671.87
58.0389	669.53
58.0533	644.64
58.0678	661.67
58.0822	661.17
58.0967	589.99
58.1111	563.67
58.1255	570.20
58.1400	545.22
58.1544	508.23
58.1689	554.05
58.1833	551.52
58.1977	542.74
58.2122	568.17
58.2266	557.57
58.2411	545.06
58.2555	571.08
58.2699	548.96
58.2844	547.84
58.2988	538.01
58.3133	565.49
58.3277	526.62
58.3421	537.74
58.3566	505.92
58.3710	523.70
58.3855	524.71
58.3999	531.33
58.4143	540.48
58.4288	557.09
58.4432	511.09
58.4577	546.64
58.4721	543.95
58.4865	537.25
58.5010	517.90
58.5154	493.05
58.5299	509.20
58.5443	552.40
58.5587	574.51
58.5732	535.30
58.5876	524.86
58.6021	544.36
58.6165	524.99
58.6309	533.79
58.6454	495.86
58.6598	500.13
58.6743	512.97
58.6887	506.57
58.7031	547.97
58.7176	532.66
58.7320	525.73
58.7465	557.18
58.7609	541.58
58.7753	540.11
58.7898	497.60
58.8042	544.24
58.8187	519.08
58.8331	511.34
58.8475	509.55
58.8620	536.65
58.8764	559.05
58.8909	536.40
58.9053	513.07
58.9197	487.94
58.9342	510.84
58.9486	500.35
58.9631	513.22
58.9775	531.41
58.9919	517.37
59.0064	504.99
59.0208	546.83
59.0353	527.84
59.0497	535.56
59.0641	553.04
59.0786	537.41
59.0930	547.45
59.1075	544.55
59.1219	540.80
59.1363	558.18
59.1508	570.85
59.1652	565.90
59.1797	521.97
59.1941	523.88
59.2085	519.41
59.2230	552.73
59.2374	539.80
59.2519	499.89
59.2663	523.32
59.2807	557.24
59.2952	535.89
59.3096	550.93
59.3241	552.74
59.3385	574.60
59.3529	573.01
59.3674	568.79
59.3818	555.04
59.3963	551.99
59.4107	542.49
59.4251	547.02
59.4396	569.82
59.4540	570.02
59.4685	579.71
59.4829	559.47
59.4973	563.87
59.5118	544.45
59.5262	525.64
59.5407	529.08
59.5551	545.44
59.5695	578.31
59.5840	565.60
59.5984	526.49
59.6129	532.49
59.6273	554.30
59.6417	544.49
59.6562	512.72
59.6706	513.30
59.6851	540.80
59.6995	521.89
59.7139	524.34
59.7284	555.68
59.7428	519.03
59.7573	517.90
59.7717	552.31
59.7861	560.56
59.8006	557.40
59.8150	559.57
59.8295	523.16
59.8439	524.57
59.8583	552.76
59.8728	558.10
59.8872	496.13
59.9017	547.50
59.9161	563.74
59.9305	518.77
59.9450	509.87
59.9594	514.01
59.9739	562.71
59.9883	582.38
60.0027	552.62
60.0172	553.99
60.0316	506.30
60.0461	524.52
60.0605	556.06
60.0750	528.35
60.0894	557.06
60.1038	533.66
60.1183	535.61
60.1327	529.28
60.1472	510.04
60.1616	546.33
60.1760	514.36
60.1905	493.14
60.2049	511.99
60.2194	537.38
60.2338	536.32
60.2482	515.97
60.2627	512.80
60.2771	531.77
60.2916	527.88
60.3060	555.90
60.3204	551.49
60.3349	527.01
60.3493	577.79
60.3638	539.36
60.3782	512.50
60.3926	528.04
60.4071	509.54
60.4215	515.22
60.4360	538.23
60.4504	544.05
60.4648	540.01
60.4793	549.15
60.4937	527.05
60.5082	503.29
60.5226	513.02
60.5370	532.16
60.5515	531.13
60.5659	529.00
60.5804	528.40
60.5948	482.89
60.6092	546.90
60.6237	485.28
60.6381	515.75
60.6526	524.85
60.6670	547.37
60.6814	535.30
60.6959	526.16
60.7103	554.19
60.7248	537.27
60.7392	546.20
60.7536	544.66
60.7681	514.16
60.7825	525.69
60.7970	527.74
60.8114	525.94
60.8258	548.11
60.8403	507.62
60.8547	519.27
60.8692	554.41
60.8836	517.36
60.8980	546.96
60.9125	523.63
60.9269	516.66
60.9414	588.18
60.9558	514.93
60.9702	528.35
60.9847	552.60
60.9991	547.77
61.0136	514.78
61.0280	550.60
61.0424	545.96
61.0569	520.95
61.0713	532.46
61.0858	550.08
61.1002	550.39
61.1146	556.34
61.1291	578.71
61.1435	530.45
61.1580	502.14
61.1724	516.15
61.1868	538.41
61.2013	519.35
61.2157	551.77
61.2302	516.73
61.2446	568.24
61.2590	547.29
61.2735	559.71
61.2879	496.69
61.3024	520.97
61.3168	548.39
61.3312	558.21
61.3457	542.75
61.3601	540.30
61.3746	532.32
61.3890	523.84
61.4034	550.61
61.4179	536.96
61.4323	552.80
61.4468	544.35
61.4612	549.90
61.4756	520.52
61.4901	546.81
61.5045	549.88
61.5190	514.70
61.5334	552.26
61.5478	567.74
61.5623	559.37
61.5767	507.19
61.5912	534.16
61.6056	524.61
61.6200	517.12
61.6345	486.91
61.6489	508.28
61.6634	521.39
61.6778	533.67
61.6922	531.19
61.7067	552.87
61.7211	562.62
61.7356	525.16
61.7500	561.29
61.7644	539.81
61.7789	543.56
61.7933	519.23
61.8078	557.34
61.8222	549.20
61.8366	540.71
61.8511	529.66
61.8655	547.06
61.8800	571.36
61.8944	572.11
61.9088	534.27
61.9233	536.97
61.9377	580.38
61.9522	530.39
61.9666	539.81
61.9810	583.52
61.9955	550.91
62.0099	560.07
62.0244	555.41
62.0388	535.95
62.0532	527.41
62.0677	537.88
62.0821	572.49
62.0966	577.26
62.1110	560.43
62.1254	574.49
62.1399	568.84
62.1543	556.78
62.1688	552.87
62.1832	551.50
62.1976	550.27
62.2121	555.11
62.2265	550.36
62.2410	584.08
62.2554	562.79
62.2698	567.13
62.2843	580.62
62.2987	537.37
62.3132	558.62
62.3276	568.76
62.3420	580.97
62.3565	573.83
62.3709	536.39
62.3854	580.70
62.3998	555.93
62.4142	538.70
62.4287	557.70
62.4431	528.48
62.4576	517.00
62.4720	580.87
62.4864	539.07
62.5009	528.08
62.5153	548.70
62.5298	542.23
62.5442	562.96
62.5586	555.95
62.5731	526.87
62.5875	594.76
62.6020	548.38
62.6164	540.96
62.6308	572.79
62.6453	532.26
62.6597	546.72
62.6742	562.63
62.6886	557.26
62.7030	564.76
62.7175	555.57
62.7319	553.03
62.7464	526.58
62.7608	517.89
62.7752	561.22
62.7897	606.31
62.8041	581.21
62.8186	556.45
62.8330	564.41
62.8474	543.74
62.8619	560.60
62.8763	566.92
62.8908	532.63
62.9052	542.90
62.9196	550.40
62.9341	525.72
62.9485	559.97
62.9630	542.72
62.9774	546.23
62.9918	588.30
63.0063	584.15
63.0207	582.19
63.0352	566.79
63.0496	567.88
63.0640	573.67
63.0785	572.51
63.0929	575.45
63.1074	578.09
63.1218	586.04
63.1362	579.34
63.1507	555.08
63.1651	601.44
63.1796	546.03
63.1940	547.91
63.2084	556.30
63.2229	580.49
63.2373	592.75
63.2518	559.51
63.2662	586.02
63.2806	597.25
63.2951	587.14
63.3095	596.35
63.3240	580.89
63.3384	585.00
63.3528	581.04
63.3673	620.17
63.3817	596.30
63.3962	584.34
63.4106	583.54
63.4250	636.24
63.4395	653.24
63.4539	670.09
63.4684	723.47
63.4828	741.60
63.4972	758.27
63.5117	770.88
63.5261	840.85
63.5406	919.80
63.5550	955.40
63.5694	1009.90
63.5839	985.27
63.5983	917.42
63.6128	878.58
63.6272	797.26
63.6416	771.13
63.6561	768.69
63.6705	750.77
63.6850	780.95
63.6994	796.39
63.7138	799.15
63.7283	794.56
63.7427	829.41
63.7572	790.51
63.7716	767.73
63.7861	799.66
63.8005	766.96
63.8149	749.62
63.8294	706.26
63.8438	642.84
63.8583	656.06
63.8727	637.27
63.8871	645.67
63.9016	629.15
63.9160	631.78
63.9305	579.63
63.9449	612.29
63.9593	634.43
63.9738	621.03
63.9882	622.26
64.0027	596.73
64.0171	608.15
64.0315	614.79
64.0460	600.61
64.0604	606.12
64.0749	590.31
64.0893	615.77
64.1037	583.77
64.1182	608.85
64.1326	579.78
64.1471	592.90
64.1615	595.30
64.1759	587.56
64.1904	596.50
64.2048	584.28
64.2193	590.89
64.2337	596.37
64.2481	641.56
64.2626	585.29
64.2770	604.31
64.2915	593.03
64.3059	610.99
64.3203	591.78
64.3348	581.27
64.3492	572.41
64.3637	588.69
64.3781	629.68
64.3925	606.72
64.4070	622.42
64.4214	596.60
64.4359	607.65
64.4503	626.24
64.4647	632.77
64.4792	616.43
64.4936	628.40
64.5081	602.51
64.5225	598.69
64.5369	619.18
64.5514	652.56
64.5658	592.01
64.5803	633.92
64.5947	631.16
64.6091	659.05
64.6236	612.69
64.6380	635.09
64.6525	674.15
64.6669	671.03
64.6813	675.38
64.6958	666.49
64.7102	689.13
64.7247	703.26
64.7391	687.40
64.7535	699.60
64.7680	691.48
64.7824	743.41
64.7969	686.25
64.8113	727.13
64.8257	736.04
64.8402	825.41
64.8546	851.82
64.8691	799.32
64.8835	875.80
64.8979	830.38
64.9124	857.61
64.9268	906.11
64.9413	961.56
64.9557	904.38
64.9701	976.64
64.9846	1029.51
64.9990	1134.81
65.0135	1233.95
65.0279	1420.99
65.0423	1642.59
65.0568	1985.32
65.0712	2500.92
65.0857	3251.69
65.1001	4229.45
65.1145	5788.75
65.1290	7719.55
65.1434	9152.66
65.1579	10791.59
65.1723	11400.73
65.1867	11001.42
65.2012	9953.46
65.2156	8410.06
65.2301	6476.64
65.2445	5184.41
65.2589	4432.58
65.2734	4067.61
65.2878	4421.56
65.3023	4800.49
65.3167	5652.51
65.3311	6390.07
65.3456	6876.26
65.3600	6899.75
65.3745	6380.21
65.3889	5328.34
65.4033	4328.07
65.4178	3519.34
65.4322	2739.64
65.4467	2123.01
65.4611	1664.10
65.4755	1445.91
65.4900	1242.59
65.5044	1105.07
65.5189	1072.96
65.5333	995.69
65.5477	947.61
65.5622	879.60
65.5766	876.92
65.5911	813.87
65.6055	754.40
65.6199	766.03
65.6344	799.58
65.6488	751.19
65.6633	708.23
65.6777	703.36
65.6921	696.87
65.7066	728.71
65.7210	688.07
65.7355	667.19
65.7499	706.54
65.7643	664.77
65.7788	672.94
65.7932	629.32
65.8077	663.75
65.8221	635.79
65.8365	653.80
65.8510	635.66
65.8654	656.44
65.8799	645.39
65.8943	666.55
65.9087	632.41
65.9232	614.74
65.9376	636.17
65.9521	647.04
65.9665	612.11
65.9809	628.88
65.9954	642.08
66.0098	629.85
66.0243	628.96
66.0387	609.69
66.0531	618.54
66.0676	634.41
66.0820	679.35
66.0965	638.73
66.1109	611.75
66.1253	606.36
66.1398	587.63
66.1542	562.24
66.1687	603.88
66.1831	594.07
66.1975	620.54
66.2120	615.94
66.2264	610.78
66.2409	607.61
66.2553	603.38
66.2697	615.00
66.2842	605.72
66.2986	626.00
66.3131	616.87
66.3275	627.37
66.3419	661.76
66.3564	594.89
66.3708	584.74
66.3853	611.94
66.3997	571.61
66.4141	562.53
66.4286	574.93
66.4430	545.84
66.4575	565.07
66.4719	597.54
66.4863	609.43
66.5008	598.78
66.5152	596.84
66.5297	596.23
66.5441	630.32
66.5585	540.78
66.5730	552.50
66.5874	569.87
66.6019	585.20
66.6163	605.19
66.6307	575.76
66.6452	602.07
66.6596	607.75
66.6741	555.42
66.6885	579.58
66.7029	566.82
66.7174	598.03
66.7318	585.33
66.7463	595.72
66.7607	566.10
66.7751	582.12
66.7896	630.19
66.8040	607.99
66.8185	595.41
66.8329	586.93
66.8473	586.59
66.8618	601.35
66.8762	586.24
66.8907	571.37
66.9051	560.62
66.9195	565.89
66.9340	588.27
66.9484	594.15
66.9629	601.63
66.9773	548.29
66.9917	544.15
67.0062	597.77
67.0206	593.31
67.0351	586.09
67.0495	569.27
67.0639	596.17
67.0784	632.64
67.0928	595.10
67.1073	563.26
67.1217	615.52
67.1361	583.73
67.1506	535.23
67.1650	568.01
67.1795	576.69
67.1939	545.07
67.2083	561.37
67.2228	567.80
67.2372	577.76
67.2517	569.55
67.2661	577.63
67.2805	556.72
67.2950	573.44
67.3094	604.11
67.3239	566.96
67.3383	564.04
67.3527	567.26
67.3672	611.61
67.3816	607.28
67.3961	607.38
67.4105	553.71
67.4250	588.15
67.4394	583.08
67.4538	568.94
67.4683	584.54
67.4827	608.89
67.4972	573.98
67.5116	536.29
67.5260	575.90
67.5405	580.86
67.5549	564.38
67.5694	599.03
67.5838	605.09
67.5982	571.07
67.6127	582.11
67.6271	568.94
67.6416	591.17
67.6560	557.68
67.6704	569.96
67.6849	550.25
67.6993	549.81
67.7138	558.48
67.7282	562.13
67.7426	528.74
67.7571	583.67
67.7715	547.60
67.7860	586.87
67.8004	573.15
67.8148	607.46
67.8293	576.20
67.8437	572.72
67.8582	570.89
67.8726	567.67
67.8870	558.54
67.9015	553.11
67.9159	568.19
67.9304	549.43
67.9448	579.45
67.9592	532.57
67.9737	541.54
67.9881	581.77
68.0026	577.76
68.0170	602.53
68.0314	601.92
68.0459	547.66
68.0603	582.07
68.0748	587.41
68.0892	594.86
68.1036	572.73
68.1181	545.87
68.1325	575.99
68.1470	561.93
68.1614	599.91
68.1758	582.59
68.1903	527.20
68.2047	543.38
68.2192	546.75
68.2336	558.18
68.2480	607.41
68.2625	551.29
68.2769	562.93
68.2914	569.07
68.3058	546.74
68.3202	582.66
68.3347	582.68
68.3491	590.75
68.3636	579.59
68.3780	577.44
68.3924	578.39
68.4069	578.30
68.4213	587.09
68.4358	573.68
68.4502	565.47
68.4646	551.77
68.4791	574.68
68.4935	552.63
68.5080	547.70
68.5224	566.13
68.5368	618.78
68.5513	557.43
68.5657	557.47
68.5802	551.53
68.5946	530.40
68.6090	539.83
68.6235	538.12
68.6379	583.22
68.6524	532.08
68.6668	541.73
68.6812	557.26
68.6957	553.79
68.7101	560.69
68.7246	517.24
68.7390	549.01
68.7534	576.17
68.7679	564.01
68.7823	564.80
68.7968	542.33
68.8112	562.69
68.8256	540.78
68.8401	605.52
68.8545	588.14
68.8690	565.89
68.8834	564.10
68.8978	584.39
68.9123	575.19
68.9267	522.75
68.9412	625.22
68.9556	567.22
68.9700	542.60
68.9845	521.97
68.9989	550.53
69.0134	576.15
69.0278	508.25
69.0422	552.95
69.0567	528.37
69.0711	559.16
69.0856	527.75
69.1000	546.58
69.1144	586.31
69.1289	576.73
69.1433	580.16
69.1578	582.63
69.1722	573.41
69.1866	609.67
69.2011	528.60
69.2155	592.13
69.2300	561.17
69.2444	545.29
69.2588	629.61
69.2733	607.71
69.2877	537.17
69.3022	583.03
69.3166	601.34
69.3310	557.48
69.3455	593.25
69.3599	565.29
69.3744	566.66
69.3888	549.22
69.4032	566.02
69.4177	607.51
69.4321	592.64
69.4466	578.74
69.4610	602.88
69.4754	593.14
69.4899	569.13
69.5043	561.58
69.5188	596.88
69.5332	596.96
69.5476	591.40
69.5621	555.00
69.5765	545.97
69.5910	545.96
69.6054	576.10
69.6198	606.97
69.6343	605.89
69.6487	551.27
69.6632	552.39
69.6776	535.39
69.6920	541.90
69.7065	622.28
69.7209	555.87
69.7354	579.73
69.7498	555.88
69.7642	558.08
69.7787	540.43
69.7931	582.02
69.8076	606.99
69.8220	575.10
69.8364	579.17
69.8509	542.00
69.8653	545.99
69.8798	542.23
69.8942	560.44
69.9086	557.78
69.9231	584.14
69.9375	556.57
69.9520	633.58
69.9664	598.12
69.9808	588.31
69.9953	589.11
70.0097	586.26
70.0242	618.84
70.0386	575.03
70.0530	564.73
70.0675	570.95
70.0819	554.06
70.0964	584.71
70.1108	580.25
70.1252	550.13
70.1397	612.79
70.1541	575.26
70.1686	571.88
70.1830	573.59
70.1974	558.67
70.2119	633.32
70.2263	589.22
70.2408	581.30
70.2552	608.34
70.2696	583.09
70.2841	537.23
70.2985	588.28
70.3130	586.46
70.3274	576.16
70.3418	590.45
70.3563	614.52
70.3707	538.84
70.3852	526.93
70.3996	535.82
70.4140	564.73
70.4285	604.73
70.4429	588.97
70.4574	578.25
70.4718	598.82
70.4862	587.34
70.5007	551.67
70.5151	586.51
70.5296	558.36
70.5440	521.05
70.5584	550.12
70.5729	569.55
70.5873	559.95
70.6018	521.10
70.6162	570.21
70.6306	600.70
70.6451	616.17
70.6595	593.08
70.6740	550.13
70.6884	568.88
70.7028	598.49
70.7173	560.64
70.7317	570.68
70.7462	613.33
70.7606	609.52
70.7750	574.44
70.7895	578.04
70.8039	572.82
70.8184	618.41
70.8328	586.10
70.8472	575.72
70.8617	588.89
70.8761	627.66
70.8906	570.22
70.9050	578.55
70.9194	595.66
70.9339	601.85
70.9483	596.12
70.9628	546.39
70.9772	502.02
70.9916	498.14
71.0061	533.79
71.0205	590.61
71.0350	621.33
71.0494	594.28
71.0638	594.09
71.0783	587.68
71.0927	587.34
71.1072	580.69
71.1216	585.09
71.1361	570.19
71.1505	576.75
71.1649	560.84
71.1794	548.71
71.1938	603.52
71.2083	593.27
71.2227	558.66
71.2371	540.60
71.2516	535.78
71.2660	598.03
71.2805	603.34
71.2949	560.43
71.3093	575.09
71.3238	562.48
71.3382	593.29
71.3527	567.58
71.3671	573.99
71.3815	578.38
71.3960	546.87
71.4104	541.54
71.4249	593.10
71.4393	584.93
71.4537	572.09
71.4682	553.70
71.4826	549.38
71.4971	560.88
71.5115	567.42
71.5259	594.19
71.5404	564.35
71.5548	551.93
71.5693	535.41
71.5837	513.29
71.5981	583.87
71.6126	569.72
71.6270	525.21
71.6415	580.91
71.6559	619.81
71.6703	595.95
71.6848	572.71
71.6992	592.57
71.7137	589.79
71.7281	607.28
71.7425	570.91
71.7570	546.94
71.7714	582.44
71.7859	577.42
71.8003	561.22
71.8147	580.94
71.8292	547.61
71.8436	507.36
71.8581	547.33
71.8725	592.40
71.8869	577.26
71.9014	632.47
71.9158	664.35
71.9303	655.82
71.9447	631.30
71.9591	566.86
71.9736	551.20
71.9880	542.25
72.0025	566.89
72.0169	598.90
72.0313	573.59
72.0458	549.45
72.0602	653.50
72.0747	692.18
72.0891	579.01
72.1035	523.10
72.1180	560.90
72.1324	617.18
72.1469	647.77
72.1613	611.45
72.1757	600.51
72.1902	608.66
72.2046	567.33
72.2191	509.92
72.2335	537.69
72.2479	543.50
72.2624	506.63
72.2768	595.06
72.2913	679.62
72.3057	620.24
72.3201	651.14
72.3346	596.74
72.3490	562.93
72.3635	557.46
72.3779	548.50
72.3923	498.56
72.4068	571.50
72.4212	587.87
72.4357	539.80
72.4501	568.29
72.4645	603.27
72.4790	615.95
72.4934	593.85
72.5079	614.07
72.5223	594.48
72.5367	590.21
72.5512	606.19
72.5656	567.51
72.5801	529.46
72.5945	526.20
72.6089	544.00
72.6234	610.15
72.6378	531.07
72.6523	505.00
72.6667	551.53
72.6811	541.88
72.6956	536.23
72.7100	588.78
72.7245	507.87
72.7389	597.38
72.7533	598.62
72.7678	540.59
72.7822	549.94
72.7967	582.31
72.8111	600.23
72.8255	612.37
72.8400	560.76
72.8544	482.94
72.8689	532.01
72.8833	480.48