2022.09.19 19:37:17
Îáðàçåö: ß÷åéêà LCoV 16-09-2022
Lambda1 = 1.54060
Lambda2 = 1.54439
Lambdam = 1.54186
R = 0.497
2Theta	I

line¹ 0 ;repeat¹ 0
22.1120	492.37
22.1264	593.53
22.1409	574.74
22.1553	560.90
22.1697	558.64
22.1842	558.17
22.1986	612.31
22.2131	551.32
22.2275	588.51
22.2419	608.06
22.2564	566.99
22.2708	518.07
22.2853	601.41
22.2997	497.03
22.3141	635.22
22.3286	563.59
22.3430	569.74
22.3575	617.34
22.3719	664.72
22.3863	537.47
22.4008	513.44
22.4152	647.17
22.4297	655.61
22.4441	640.27
22.4585	593.50
22.4730	602.28
22.4874	685.83
22.5019	661.67
22.5163	481.60
22.5307	649.28
22.5452	555.14
22.5596	580.32
22.5741	614.70
22.5885	568.71
22.6029	565.13
22.6174	616.59
22.6318	524.84
22.6463	565.25
22.6607	653.57
22.6751	604.84
22.6896	561.61
22.7040	572.66
22.7185	702.68
22.7329	631.20
22.7473	525.19
22.7618	590.24
22.7762	667.11
22.7907	647.96
22.8051	604.10
22.8195	611.98
22.8340	526.07
22.8484	523.63
22.8629	605.41
22.8773	591.99
22.8917	489.01
22.9062	631.16
22.9206	566.55
22.9351	507.40
22.9495	559.32
22.9639	532.16
22.9784	524.15
22.9928	597.42
23.0073	504.25
23.0217	574.43
23.0361	635.76
23.0506	616.52
23.0650	613.53
23.0795	534.84
23.0939	521.17
23.1083	513.93
23.1228	583.08
23.1372	526.29
23.1517	538.15
23.1661	517.02
23.1806	529.14
23.1950	549.47
23.2094	475.09
23.2239	538.02
23.2383	607.18
23.2528	555.93
23.2672	607.02
23.2816	591.06
23.2961	577.42
23.3105	566.54
23.3250	519.20
23.3394	600.28
23.3538	597.32
23.3683	608.32
23.3827	551.62
23.3972	497.76
23.4116	559.20
23.4260	561.36
23.4405	560.87
23.4549	578.85
23.4694	581.56
23.4838	509.26
23.4982	602.16
23.5127	528.09
23.5271	523.74
23.5416	587.01
23.5560	554.01
23.5704	593.89
23.5849	568.58
23.5993	538.50
23.6138	534.89
23.6282	533.34
23.6426	546.79
23.6571	625.24
23.6715	554.29
23.6860	550.35
23.7004	567.69
23.7148	579.31
23.7293	535.63
23.7437	554.28
23.7582	630.28
23.7726	627.44
23.7870	570.32
23.8015	579.10
23.8159	508.08
23.8304	578.22
23.8448	506.44
23.8592	553.49
23.8737	570.64
23.8881	495.94
23.9026	591.24
23.9170	523.36
23.9314	557.40
23.9459	584.91
23.9603	509.95
23.9748	517.25
23.9892	587.30
24.0036	532.76
24.0181	575.46
24.0325	555.82
24.0470	546.97
24.0614	513.89
24.0758	603.31
24.0903	588.06
24.1047	523.58
24.1192	552.50
24.1336	537.45
24.1480	499.29
24.1625	584.32
24.1769	604.46
24.1914	580.77
24.2058	537.31
24.2202	615.41
24.2347	656.96
24.2491	632.61
24.2636	528.93
24.2780	518.60
24.2924	539.67
24.3069	560.42
24.3213	559.73
24.3358	578.76
24.3502	525.26
24.3646	510.69
24.3791	557.86
24.3935	508.75
24.4080	492.39
24.4224	599.58
24.4368	511.25
24.4513	550.65
24.4657	580.59
24.4802	564.24
24.4946	531.17
24.5090	541.09
24.5235	536.84
24.5379	514.29
24.5524	550.30
24.5668	539.63
24.5812	557.51
24.5957	516.30
24.6101	573.73
24.6246	569.40
24.6390	538.90
24.6534	524.43
24.6679	557.28
24.6823	540.70
24.6968	544.22
24.7112	554.92
24.7256	543.15
24.7401	567.95
24.7545	554.62
24.7690	529.02
24.7834	514.11
24.7978	570.58
24.8123	521.21
24.8267	557.20
24.8412	545.75
24.8556	560.84
24.8700	558.06
24.8845	569.39
24.8989	568.24
24.9134	544.54
24.9278	557.66
24.9422	580.72
24.9567	523.74
24.9711	534.34
24.9856	540.65
25.0000	553.99
25.0144	619.73
25.0289	530.70
25.0433	554.91
25.0578	523.51
25.0722	528.14
25.0866	520.11
25.1011	594.11
25.1155	599.79
25.1300	536.84
25.1444	530.01
25.1588	543.92
25.1733	526.83
25.1877	565.88
25.2022	541.47
25.2166	529.78
25.2310	544.92
25.2455	546.39
25.2599	500.54
25.2744	570.40
25.2888	549.29
25.3032	503.87
25.3177	546.33
25.3321	568.91
25.3466	529.67
25.3610	546.74
25.3754	532.46
25.3899	498.25
25.4043	546.18
25.4188	556.07
25.4332	508.73
25.4476	498.49
25.4621	517.59
25.4765	554.39
25.4910	520.62
25.5054	543.12
25.5198	524.77
25.5343	535.37
25.5487	509.42
25.5632	544.86
25.5776	571.92
25.5920	545.35
25.6065	554.88
25.6209	545.23
25.6354	522.77
25.6498	555.73
25.6642	571.37
25.6787	583.43
25.6931	528.74
25.7076	585.92
25.7220	577.65
25.7364	500.71
25.7509	550.34
25.7653	553.89
25.7798	529.45
25.7942	551.76
25.8086	530.03
25.8231	534.32
25.8375	579.09
25.8520	539.77
25.8664	544.08
25.8808	544.29
25.8953	580.11
25.9097	552.83
25.9242	533.34
25.9386	540.99
25.9530	514.76
25.9675	520.53
25.9819	563.32
25.9964	529.38
26.0108	504.22
26.0252	518.69
26.0397	549.28
26.0541	544.40
26.0686	507.62
26.0830	550.66
26.0974	543.20
26.1119	527.15
26.1263	530.26
26.1408	506.78
26.1552	494.87
26.1696	557.57
26.1841	542.27
26.1985	530.88
26.2130	510.81
26.2274	544.37
26.2418	556.52
26.2563	527.69
26.2707	505.20
26.2852	552.91
26.2996	543.15
26.3140	514.77
26.3285	556.70
26.3429	533.49
26.3574	545.20
26.3718	544.62
26.3862	544.64
26.4007	522.35
26.4151	551.86
26.4296	560.27
26.4440	525.12
26.4584	503.43
26.4729	495.16
26.4873	499.54
26.5018	519.04
26.5162	497.76
26.5306	536.28
26.5451	544.04
26.5595	574.30
26.5740	534.00
26.5884	538.52
26.6028	534.12
26.6173	523.02
26.6317	556.74
26.6462	571.66
26.6606	571.96
26.6750	564.22
26.6895	527.84
26.7039	521.49
26.7184	513.93
26.7328	529.64
26.7472	541.80
26.7617	518.49
26.7761	514.18
26.7906	507.10
26.8050	504.17
26.8194	515.60
26.8339	547.68
26.8483	550.98
26.8628	574.70
26.8772	579.07
26.8917	550.63
26.9061	532.00
26.9205	506.43
26.9350	501.73
26.9494	520.41
26.9639	555.39
26.9783	507.95
26.9927	484.47
27.0072	491.70
27.0216	535.03
27.0361	554.82
27.0505	499.25
27.0649	533.36
27.0794	529.49
27.0938	525.95
27.1083	527.89
27.1227	553.39
27.1371	512.42
27.1516	510.51
27.1660	511.63
27.1805	500.81
27.1949	503.67
27.2093	516.33
27.2238	542.43
27.2382	525.26
27.2527	535.03
27.2671	530.76
27.2815	526.96
27.2960	488.25
27.3104	526.35
27.3249	511.66
27.3393	525.25
27.3537	523.38
27.3682	528.70
27.3826	497.81
27.3971	464.33
27.4115	518.16
27.4259	537.26
27.4404	541.96
27.4548	522.60
27.4693	536.78
27.4837	515.58
27.4981	499.41
27.5126	514.01
27.5270	542.83
27.5415	536.05
27.5559	500.02
27.5703	514.69
27.5848	518.76
27.5992	516.61
27.6137	529.03
27.6281	559.82
27.6425	542.46
27.6570	516.94
27.6714	521.38
27.6859	510.07
27.7003	514.05
27.7147	552.10
27.7292	549.01
27.7436	489.06
27.7581	504.12
27.7725	529.32
27.7869	523.02
27.8014	517.81
27.8158	488.54
27.8303	531.61
27.8447	484.37
27.8591	505.40
27.8736	527.26
27.8880	538.95
27.9025	556.06
27.9169	525.58
27.9313	534.55
27.9458	518.62
27.9602	505.28
27.9747	506.67
27.9891	494.87
28.0035	491.66
28.0180	535.40
28.0324	529.34
28.0469	493.30
28.0613	524.23
28.0757	498.49
28.0902	495.58
28.1046	484.63
28.1191	507.18
28.1335	489.50
28.1479	472.91
28.1624	538.86
28.1768	535.93
28.1913	524.87
28.2057	499.07
28.2201	541.28
28.2346	532.79
28.2490	503.78
28.2635	526.82
28.2779	531.13
28.2923	507.11
28.3068	516.09
28.3212	492.72
28.3357	511.75
28.3501	500.10
28.3645	523.96
28.3790	474.82
28.3934	502.04
28.4079	528.98
28.4223	521.44
28.4367	501.14
28.4512	529.06
28.4656	544.45
28.4801	528.64
28.4945	507.14
28.5089	507.11
28.5234	546.68
28.5378	529.72
28.5523	511.92
28.5667	554.04
28.5811	501.20
28.5956	480.42
28.6100	494.41
28.6245	506.33
28.6389	526.14
28.6533	527.03
28.6678	511.37
28.6822	530.03
28.6967	477.14
28.7111	511.25
28.7255	493.77
28.7400	499.96
28.7544	503.89
28.7689	513.74
28.7833	498.66
28.7977	479.81
28.8122	521.00
28.8266	509.80
28.8411	508.05
28.8555	526.17
28.8699	514.35
28.8844	540.13
28.8988	526.02
28.9133	513.93
28.9277	545.98
28.9421	511.41
28.9566	507.84
28.9710	503.99
28.9855	465.26
28.9999	534.38
29.0143	487.02
29.0288	492.12
29.0432	461.08
29.0577	500.38
29.0721	485.97
29.0865	538.55
29.1010	501.02
29.1154	487.87
29.1299	520.73
29.1443	512.34
29.1587	512.28
29.1732	523.86
29.1876	490.85
29.2021	523.31
29.2165	508.06
29.2309	510.08
29.2454	507.20
29.2598	493.81
29.2743	509.73
29.2887	512.95
29.3031	513.55
29.3176	486.63
29.3320	518.92
29.3465	509.82
29.3609	482.41
29.3753	493.13
29.3898	471.75
29.4042	527.65
29.4187	539.81
29.4331	512.33
29.4475	492.59
29.4620	504.59
29.4764	503.99
29.4909	480.16
29.5053	501.63
29.5197	488.85
29.5342	518.99
29.5486	500.06
29.5631	509.15
29.5775	511.25
29.5919	536.68
29.6064	511.59
29.6208	512.13
29.6353	536.41
29.6497	516.61
29.6641	495.75
29.6786	504.64
29.6930	495.71
29.7075	487.64
29.7219	482.35
29.7363	486.45
29.7508	490.21
29.7652	486.48
29.7797	505.36
29.7941	497.59
29.8085	522.57
29.8230	492.53
29.8374	538.73
29.8519	508.17
29.8663	516.92
29.8807	512.23
29.8952	499.65
29.9096	504.61
29.9241	478.34
29.9385	453.80
29.9529	499.46
29.9674	484.73
29.9818	484.20
29.9963	482.39
30.0107	505.71
30.0251	511.80
30.0396	506.01
30.0540	488.66
30.0685	506.95
30.0829	534.07
30.0973	462.05
30.1118	500.29
30.1262	537.84
30.1407	512.34
30.1551	492.25
30.1695	538.76
30.1840	518.32
30.1984	500.89
30.2129	514.60
30.2273	505.83
30.2417	492.45
30.2562	543.30
30.2706	516.57
30.2851	504.97
30.2995	490.78
30.3139	506.76
30.3284	507.96
30.3428	538.83
30.3573	510.65
30.3717	507.03
30.3861	483.20
30.4006	522.59
30.4150	535.13
30.4295	510.90
30.4439	550.97
30.4583	561.65
30.4728	591.60
30.4872	599.48
30.5017	612.95
30.5161	658.15
30.5305	690.99
30.5450	715.07
30.5594	715.00
30.5739	727.08
30.5883	749.48
30.6028	750.54
30.6172	742.63
30.6316	712.67
30.6461	718.38
30.6605	675.25
30.6750	636.38
30.6894	597.80
30.7038	545.00
30.7183	549.77
30.7327	543.23
30.7472	538.93
30.7616	538.13
30.7760	570.40
30.7905	541.15
30.8049	536.73
30.8194	517.99
30.8338	509.88
30.8482	488.75
30.8627	476.83
30.8771	487.07
30.8916	526.38
30.9060	518.92
30.9204	480.93
30.9349	514.01
30.9493	508.57
30.9638	496.15
30.9782	486.93
30.9926	486.33
31.0071	534.98
31.0215	537.35
31.0360	489.60
31.0504	502.92
31.0648	510.70
31.0793	501.15
31.0937	522.21
31.1082	520.64
31.1226	545.95
31.1370	507.41
31.1515	505.16
31.1659	500.94
31.1804	516.37
31.1948	510.32
31.2092	517.25
31.2237	526.89
31.2381	507.93
31.2526	491.44
31.2670	513.96
31.2814	532.68
31.2959	532.68
31.3103	540.86
31.3248	545.11
31.3392	526.02
31.3536	537.24
31.3681	531.54
31.3825	536.78
31.3970	527.54
31.4114	530.32
31.4258	572.15
31.4403	536.17
31.4547	546.60
31.4692	524.21
31.4836	517.77
31.4980	497.82
31.5125	505.45
31.5269	481.19
31.5414	493.01
31.5558	499.13
31.5702	545.19
31.5847	534.56
31.5991	493.04
31.6136	521.40
31.6280	501.85
31.6424	491.54
31.6569	472.87
31.6713	491.84
31.6858	473.64
31.7002	491.78
31.7146	481.29
31.7291	491.18
31.7435	474.94
31.7580	496.78
31.7724	506.90
31.7868	526.94
31.8013	511.29
31.8157	529.81
31.8302	495.76
31.8446	489.71
31.8590	526.27
31.8735	529.65
31.8879	484.77
31.9024	526.28
31.9168	553.65
31.9312	513.72
31.9457	507.98
31.9601	490.68
31.9746	502.18
31.9890	490.07
32.0034	511.37
32.0179	537.61
32.0323	503.16
32.0468	490.25
32.0612	495.19
32.0756	473.30
32.0901	491.84
32.1045	456.97
32.1190	500.21
32.1334	516.06
32.1478	522.55
32.1623	492.54
32.1767	528.14
32.1912	513.74
32.2056	493.98
32.2200	494.19
32.2345	491.53
32.2489	485.80
32.2634	492.52
32.2778	471.73
32.2922	488.05
32.3067	519.20
32.3211	514.62
32.3356	552.33
32.3500	470.24
32.3644	519.04
32.3789	519.46
32.3933	537.09
32.4078	486.23
32.4222	533.93
32.4366	529.27
32.4511	464.79
32.4655	491.72
32.4800	504.67
32.4944	493.76
32.5088	502.97
32.5233	534.80
32.5377	524.87
32.5522	517.45
32.5666	488.17
32.5810	524.80
32.5955	525.74
32.6099	509.64
32.6244	511.95
32.6388	483.27
32.6532	466.52
32.6677	510.10
32.6821	473.19
32.6966	492.20
32.7110	523.42
32.7254	489.52
32.7399	499.98
32.7543	519.32
32.7688	500.21
32.7832	528.68
32.7976	455.27
32.8121	481.25
32.8265	507.00
32.8410	464.10
32.8554	495.19
32.8698	526.17
32.8843	468.67
32.8987	544.64
32.9132	528.11
32.9276	484.17
32.9420	516.78
32.9565	492.21
32.9709	471.68
32.9854	530.92
32.9998	523.98
33.0142	500.85
33.0287	489.27
33.0431	508.90
33.0576	523.26
33.0720	513.18
33.0864	502.37
33.1009	512.83
33.1153	531.34
33.1298	497.73
33.1442	467.37
33.1586	473.25
33.1731	517.78
33.1875	517.91
33.2020	505.24
33.2164	527.76
33.2308	479.79
33.2453	510.13
33.2597	481.30
33.2742	513.21
33.2886	496.36
33.3030	480.64
33.3175	470.91
33.3319	521.24
33.3464	529.43
33.3608	495.07
33.3752	496.09
33.3897	507.03
33.4041	507.95
33.4186	509.13
33.4330	523.71
33.4474	485.42
33.4619	483.36
33.4763	511.36
33.4908	496.48
33.5052	467.91
33.5196	499.55
33.5341	506.11
33.5485	497.46
33.5630	518.81
33.5774	499.27
33.5918	477.71
33.6063	515.64
33.6207	483.60
33.6352	498.59
33.6496	535.61
33.6640	476.40
33.6785	501.65
33.6929	510.85
33.7074	507.12
33.7218	477.37
33.7362	487.27
33.7507	512.82
33.7651	497.55
33.7796	523.58
33.7940	529.54
33.8084	494.29
33.8229	487.17
33.8373	538.98
33.8518	501.52
33.8662	541.74
33.8806	496.52
33.8951	511.43
33.9095	483.52
33.9240	492.76
33.9384	526.58
33.9528	507.54
33.9673	491.41
33.9817	508.24
33.9962	526.50
34.0106	484.04
34.0250	479.27
34.0395	501.39
34.0539	487.36
34.0684	517.42
34.0828	489.25
34.0972	505.34
34.1117	499.75
34.1261	505.35
34.1406	511.72
34.1550	542.64
34.1694	514.52
34.1839	479.16
34.1983	492.93
34.2128	493.62
34.2272	496.82
34.2417	506.09
34.2561	471.35
34.2705	484.21
34.2850	506.64
34.2994	474.13
34.3139	508.72
34.3283	524.75
34.3427	523.45
34.3572	506.95
34.3716	518.79
34.3861	470.49
34.4005	504.89
34.4149	504.54
34.4294	510.25
34.4438	476.79
34.4583	509.68
34.4727	506.28
34.4871	507.88
34.5016	456.18
34.5160	457.84
34.5305	495.79
34.5449	500.81
34.5593	519.12
34.5738	467.11
34.5882	482.27
34.6027	486.11
34.6171	524.79
34.6315	531.54
34.6460	530.22
34.6604	516.24
34.6749	488.30
34.6893	507.33
34.7037	525.40
34.7182	502.79
34.7326	532.71
34.7471	525.08
34.7615	512.48
34.7759	506.97
34.7904	512.84
34.8048	518.35
34.8193	508.02
34.8337	502.61
34.8481	509.42
34.8626	503.10
34.8770	494.06
34.8915	498.06
34.9059	512.84
34.9203	515.94
34.9348	531.42
34.9492	530.42
34.9637	523.34
34.9781	517.92
34.9925	504.10
35.0070	499.77
35.0214	515.04
35.0359	514.19
35.0503	500.47
35.0647	495.83
35.0792	486.22
35.0936	502.20
35.1081	501.50
35.1225	517.13
35.1369	503.39
35.1514	523.49
35.1658	527.57
35.1803	542.18
35.1947	480.04
35.2091	477.15
35.2236	487.11
35.2380	488.18
35.2525	546.13
35.2669	508.08
35.2813	509.54
35.2958	508.04
35.3102	527.97
35.3247	540.15
35.3391	501.68
35.3535	473.99
35.3680	495.08
35.3824	512.63
35.3969	528.19
35.4113	528.38
35.4257	515.43
35.4402	521.50
35.4546	525.70
35.4691	534.43
35.4835	501.28
35.4979	531.75
35.5124	517.18
35.5268	531.01
35.5413	550.34
35.5557	545.01
35.5701	560.28
35.5846	517.00
35.5990	509.97
35.6135	507.12
35.6279	486.03
35.6423	529.18
35.6568	544.71
35.6712	524.94
35.6857	611.10
35.7001	687.52
35.7145	743.40
35.7290	712.94
35.7434	676.99
35.7579	621.97
35.7723	637.76
35.7867	700.83
35.8012	754.05
35.8156	736.89
35.8301	728.29
35.8445	713.60
35.8589	805.89
35.8734	913.25
35.8878	993.95
35.9023	1116.89
35.9167	1187.01
35.9311	1340.21
35.9456	1590.99
35.9600	1949.22
35.9745	2005.97
35.9889	2282.59
36.0033	2712.68
36.0178	3041.93
36.0322	3147.15
36.0467	2749.82
36.0611	2219.68
36.0755	1938.34
36.0900	2276.19
36.1044	2340.58
36.1189	1801.31
36.1333	1363.66
36.1477	1055.05
36.1622	1068.25
36.1766	987.38
36.1911	871.44
36.2055	784.17
36.2199	782.21
36.2344	763.07
36.2488	643.99
36.2633	565.02
36.2777	558.14
36.2921	552.39
36.3066	553.16
36.3210	547.10
36.3355	526.75
36.3499	538.47
36.3643	500.46
36.3788	531.12
36.3932	571.96
36.4077	569.57
36.4221	549.18
36.4365	508.58
36.4510	485.41
36.4654	540.47
36.4799	555.50
36.4943	549.02
36.5087	500.44
36.5232	525.49
36.5376	499.41
36.5521	553.68
36.5665	548.34
36.5809	549.62
36.5954	559.00
36.6098	532.17
36.6243	522.86
36.6387	512.74
36.6531	503.86
36.6676	488.32
36.6820	530.34
36.6965	501.85
36.7109	530.37
36.7253	520.20
36.7398	522.36
36.7542	494.79
36.7687	553.21
36.7831	540.84
36.7975	546.31
36.8120	547.21
36.8264	525.44
36.8409	559.18
36.8553	598.84
36.8697	575.80
36.8842	577.14
36.8986	603.26
36.9131	583.03
36.9275	570.55
36.9419	632.48
36.9564	557.70
36.9708	552.06
36.9853	591.26
36.9997	553.36
37.0141	506.13
37.0286	543.62
37.0430	519.26
37.0575	513.91
37.0719	576.60
37.0863	569.68
37.1008	510.24
37.1152	454.27
37.1297	529.68
37.1441	481.12
37.1585	487.51
37.1730	487.40
37.1874	511.42
37.2019	508.52
37.2163	526.88
37.2307	517.98
37.2452	531.46
37.2596	521.97
37.2741	494.33
37.2885	520.24
37.3029	537.06
37.3174	537.42
37.3318	528.38
37.3463	516.94
37.3607	497.71
37.3751	506.52
37.3896	497.41
37.4040	507.77
37.4185	481.83
37.4329	473.29
37.4473	489.11
37.4618	477.16
37.4762	512.61
37.4907	491.15
37.5051	486.44
37.5195	510.47
37.5340	517.08
37.5484	498.95
37.5629	488.32
37.5773	467.15
37.5917	496.12
37.6062	516.19
37.6206	527.85
37.6351	514.52
37.6495	536.20
37.6639	535.63
37.6784	504.56
37.6928	489.61
37.7073	528.24
37.7217	522.85
37.7361	506.33
37.7506	533.58
37.7650	523.50
37.7795	501.57
37.7939	541.89
37.8083	506.71
37.8228	511.94
37.8372	509.77
37.8517	504.84
37.8661	499.66
37.8805	516.93
37.8950	498.21
37.9094	512.00
37.9239	503.73
37.9383	541.43
37.9528	500.09
37.9672	490.34
37.9816	468.01
37.9961	504.02
38.0105	494.98
38.0250	521.85
38.0394	486.34
38.0538	542.10
38.0683	505.05
38.0827	462.76
38.0972	476.43
38.1116	539.59
38.1260	535.01
38.1405	508.40
38.1549	490.22
38.1694	518.94
38.1838	504.92
38.1982	514.12
38.2127	502.66
38.2271	472.09
38.2416	508.52
38.2560	514.60
38.2704	516.75
38.2849	516.71
38.2993	530.41
38.3138	540.11
38.3282	500.48
38.3426	517.37
38.3571	527.62
38.3715	549.77
38.3860	509.88
38.4004	511.48
38.4148	543.96
38.4293	602.30
38.4437	592.71
38.4582	635.07
38.4726	640.77
38.4870	672.24
38.5015	714.46
38.5159	788.57
38.5304	843.64
38.5448	813.87
38.5592	853.70
38.5737	783.02
38.5881	711.00
38.6026	741.17
38.6170	705.09
38.6314	656.66
38.6459	686.23
38.6603	680.59
38.6748	647.01
38.6892	590.69
38.7036	570.27
38.7181	534.84
38.7325	528.66
38.7470	496.93
38.7614	486.09
38.7758	477.45
38.7903	499.89
38.8047	530.59
38.8192	511.29
38.8336	496.87
38.8480	483.83
38.8625	494.04
38.8769	517.12
38.8914	497.66
38.9058	532.10
38.9202	492.65
38.9347	473.91
38.9491	475.75
38.9636	498.11
38.9780	487.65
38.9924	487.24
39.0069	491.69
39.0213	513.17
39.0358	530.67
39.0502	522.46
39.0646	485.73
39.0791	499.63
39.0935	521.07
39.1080	526.83
39.1224	499.48
39.1368	491.55
39.1513	480.50
39.1657	512.91
39.1802	460.04
39.1946	460.57
39.2090	493.18
39.2235	514.75
39.2379	468.20
39.2524	490.34
39.2668	518.17
39.2812	529.96
39.2957	502.47
39.3101	521.00
39.3246	507.94
39.3390	504.86
39.3534	494.75
39.3679	474.39
39.3823	476.21
39.3968	471.37
39.4112	490.29
39.4256	496.35
39.4401	495.62
39.4545	480.39
39.4690	471.29
39.4834	485.93
39.4978	502.04
39.5123	454.27
39.5267	478.15
39.5412	497.17
39.5556	529.97
39.5700	477.23
39.5845	498.74
39.5989	503.90
39.6134	517.23
39.6278	508.29
39.6422	495.96
39.6567	484.81
39.6711	483.44
39.6856	484.93
39.7000	524.90
39.7144	562.79
39.7289	494.53
39.7433	466.34
39.7578	444.18
39.7722	474.87
39.7866	504.97
39.8011	500.16
39.8155	513.20
39.8300	491.24
39.8444	469.87
39.8588	480.00
39.8733	491.77
39.8877	481.51
39.9022	530.33
39.9166	499.38
39.9310	495.82
39.9455	504.73
39.9599	479.70
39.9744	474.50
39.9888	453.53
40.0032	469.43
40.0177	488.23
40.0321	501.95
40.0466	476.96
40.0610	515.75
40.0754	497.68
40.0899	530.68
40.1043	513.66
40.1188	480.47
40.1332	516.99
40.1476	490.49
40.1621	489.43
40.1765	491.65
40.1910	480.59
40.2054	491.68
40.2198	525.66
40.2343	495.64
40.2487	483.31
40.2632	502.81
40.2776	505.97
40.2920	524.34
40.3065	504.06
40.3209	538.46
40.3354	492.68
40.3498	492.79
40.3642	470.12
40.3787	496.14
40.3931	450.77
40.4076	493.09
40.4220	519.80
40.4364	490.77
40.4509	478.19
40.4653	504.79
40.4798	483.88
40.4942	498.43
40.5086	436.21
40.5231	486.81
40.5375	500.69
40.5520	527.72
40.5664	487.66
40.5808	495.82
40.5953	510.45
40.6097	495.43
40.6242	516.41
40.6386	532.06
40.6530	496.83
40.6675	491.66
40.6819	500.67
40.6964	517.22
40.7108	501.18
40.7252	478.12
40.7397	473.60
40.7541	497.81
40.7686	474.94
40.7830	484.05
40.7974	481.92
40.8119	485.31
40.8263	526.15
40.8408	499.87
40.8552	492.21
40.8696	523.02
40.8841	466.38
40.8985	553.68
40.9130	514.64
40.9274	483.84
40.9418	481.47
40.9563	457.27
40.9707	497.19
40.9852	472.44
40.9996	504.17
41.0140	490.00
41.0285	491.51
41.0429	518.40
41.0574	511.96
41.0718	445.53
41.0862	508.43
41.1007	538.04
41.1151	476.16
41.1296	472.08
41.1440	443.30
41.1584	471.51
41.1729	492.47
41.1873	519.32
41.2018	531.50
41.2162	539.38
41.2306	520.06
41.2451	499.85
41.2595	445.74
41.2740	505.08
41.2884	495.58
41.3028	486.27
41.3173	505.06
41.3317	498.46
41.3462	494.82
41.3606	517.82
41.3750	499.51
41.3895	487.15
41.4039	500.13
41.4184	500.00
41.4328	511.06
41.4472	488.93
41.4617	488.68
41.4761	512.08
41.4906	482.50
41.5050	458.80
41.5194	490.05
41.5339	506.58
41.5483	512.91
41.5628	492.66
41.5772	482.54
41.5916	461.94
41.6061	498.05
41.6205	491.15
41.6350	508.56
41.6494	518.39
41.6639	497.14
41.6783	476.78
41.6927	481.24
41.7072	528.11
41.7216	516.77
41.7361	509.05
41.7505	516.69
41.7649	509.06
41.7794	492.29
41.7938	503.22
41.8083	521.21
41.8227	501.78
41.8371	496.95
41.8516	500.92
41.8660	533.12
41.8805	540.04
41.8949	521.66
41.9093	518.94
41.9238	544.63
41.9382	567.63
41.9527	546.90
41.9671	574.17
41.9815	561.53
41.9960	587.18
42.0104	545.72
42.0249	584.43
42.0393	566.96
42.0537	554.68
42.0682	577.70
42.0826	574.98
42.0971	614.52
42.1115	588.38
42.1259	606.19
42.1404	603.94
42.1548	610.38
42.1693	644.03
42.1837	657.25
42.1981	725.66
42.2126	807.97
42.2270	941.51
42.2415	1088.36
42.2559	1169.77
42.2703	1356.75
42.2848	1507.98
42.2992	1628.55
42.3137	1657.97
42.3281	1627.14
42.3425	1564.68
42.3570	1466.66
42.3714	1442.23
42.3859	1358.91
42.4003	1285.10
42.4147	1311.73
42.4292	1228.91
42.4436	1116.80
42.4581	1032.76
42.4725	941.56
42.4869	847.66
42.5014	757.77
42.5158	673.27
42.5303	648.80
42.5447	617.63
42.5591	601.59
42.5736	613.80
42.5880	586.58
42.6025	562.59
42.6169	558.90
42.6313	556.58
42.6458	557.28
42.6602	568.45
42.6747	546.93
42.6891	510.01
42.7035	542.45
42.7180	528.09
42.7324	525.79
42.7469	541.97
42.7613	529.02
42.7757	532.00
42.7902	510.81
42.8046	508.78
42.8191	523.70
42.8335	516.73
42.8479	533.17
42.8624	532.70
42.8768	516.37
42.8913	495.00
42.9057	538.72
42.9201	530.45
42.9346	490.22
42.9490	490.61
42.9635	497.21
42.9779	523.24
42.9923	534.44
43.0068	523.57
43.0212	524.59
43.0357	549.02
43.0501	556.59
43.0645	548.21
43.0790	510.36
43.0934	488.09
43.1079	501.77
43.1223	499.34
43.1367	517.60
43.1512	512.09
43.1656	546.10
43.1801	535.20
43.1945	540.01
43.2089	529.12
43.2234	540.31
43.2378	546.62
43.2523	548.77
43.2667	540.96
43.2811	521.12
43.2956	517.54
43.3100	534.69
43.3245	532.17
43.3389	515.93
43.3533	525.31
43.3678	529.25
43.3822	518.85
43.3967	522.58
43.4111	519.81
43.4255	543.88
43.4400	553.54
43.4544	528.06
43.4689	526.21
43.4833	545.99
43.4977	500.95
43.5122	511.40
43.5266	496.48
43.5411	490.00
43.5555	499.84
43.5699	529.24
43.5844	531.34
43.5988	530.37
43.6133	556.47
43.6277	564.49
43.6421	524.43
43.6566	511.80
43.6710	545.77
43.6855	564.46
43.6999	600.44
43.7143	604.11
43.7288	634.28
43.7432	667.81
43.7577	663.20
43.7721	647.69
43.7865	621.73
43.8010	615.95
43.8154	621.60
43.8299	618.38
43.8443	612.64
43.8587	598.50
43.8732	629.89
43.8876	603.84
43.9021	555.48
43.9165	584.61
43.9309	569.59
43.9454	538.38
43.9598	515.92
43.9743	530.26
43.9887	524.96
44.0031	504.89
44.0176	488.52
44.0320	542.21
44.0465	488.63
44.0609	497.44
44.0753	510.61
44.0898	526.10
44.1042	468.58
44.1187	468.02
44.1331	490.11
44.1475	471.19
44.1620	491.54
44.1764	526.32
44.1909	496.49
44.2053	526.90
44.2197	526.14
44.2342	493.68
44.2486	514.17
44.2631	530.82
44.2775	511.83
44.2919	506.74
44.3064	558.39
44.3208	574.05
44.3353	530.94
44.3497	504.58
44.3641	517.14
44.3786	520.92
44.3930	519.76
44.4075	563.05
44.4219	588.76
44.4363	598.46
44.4508	574.77
44.4652	573.81
44.4797	586.53
44.4941	604.60
44.5085	589.01
44.5230	563.26
44.5374	573.27
44.5519	567.58
44.5663	564.27
44.5807	568.17
44.5952	573.46
44.6096	592.54
44.6241	571.25
44.6385	572.82
44.6529	539.29
44.6674	565.33
44.6818	570.10
44.6963	611.92
44.7107	642.98
44.7251	677.66
44.7396	747.43
44.7540	787.42
44.7685	767.35
44.7829	903.05
44.7973	853.09
44.8118	856.06
44.8262	786.09
44.8407	769.45
44.8551	759.19
44.8695	753.77
44.8840	724.35
44.8984	698.40
44.9129	704.95
44.9273	687.70
44.9417	695.07
44.9562	653.74
44.9706	600.15
44.9851	585.37
44.9995	573.96
45.0139	556.70
45.0284	536.65
45.0428	497.99
45.0573	551.64
45.0717	511.54
45.0861	523.70
45.1006	571.99
45.1150	513.72
45.1295	527.95
45.1439	499.32
45.1583	511.75
45.1728	553.18
45.1872	529.74
45.2017	508.96
45.2161	481.53
45.2305	496.14
45.2450	532.45
45.2594	510.74
45.2739	504.69
45.2883	490.32
45.3028	494.27
45.3172	518.23
45.3316	519.09
45.3461	501.23
45.3605	494.52
45.3750	478.36
45.3894	501.91
45.4038	505.31
45.4183	498.97
45.4327	501.49
45.4472	492.43
45.4616	493.38
45.4760	518.29
45.4905	498.01
45.5049	523.52
45.5194	533.82
45.5338	508.73
45.5482	514.63
45.5627	532.15
45.5771	488.97
45.5916	528.13
45.6060	525.40
45.6204	525.01
45.6349	547.11
45.6493	535.18
45.6638	499.32
45.6782	460.53
45.6926	481.81
45.7071	528.21
45.7215	504.62
45.7360	469.35
45.7504	517.74
45.7648	531.65
45.7793	501.50
45.7937	528.95
45.8082	524.72
45.8226	509.17
45.8370	518.25
45.8515	506.38
45.8659	520.26
45.8804	501.35
45.8948	511.70
45.9092	461.36
45.9237	483.27
45.9381	500.10
45.9526	480.17
45.9670	507.14
45.9814	523.28
45.9959	497.94
46.0103	529.77
46.0248	519.68
46.0392	512.56
46.0536	514.31
46.0681	502.19
46.0825	504.87
46.0970	518.30
46.1114	494.95
46.1258	543.46
46.1403	497.59
46.1547	478.86
46.1692	505.84
46.1836	512.54
46.1980	472.48
46.2125	472.61
46.2269	477.03
46.2414	487.47
46.2558	478.60
46.2702	498.53
46.2847	514.68
46.2991	491.64
46.3136	492.97
46.3280	504.30
46.3424	491.08
46.3569	557.82
46.3713	506.84
46.3858	502.49
46.4002	522.07
46.4146	494.44
46.4291	501.15
46.4435	461.21
46.4580	474.96
46.4724	487.67
46.4868	484.63
46.5013	493.97
46.5157	504.03
46.5302	504.13
46.5446	503.63
46.5590	535.62
46.5735	515.74
46.5879	493.71
46.6024	495.14
46.6168	481.84
46.6312	508.82
46.6457	510.85
46.6601	543.70
46.6746	508.52
46.6890	469.33
46.7034	497.14
46.7179	491.77
46.7323	499.60
46.7468	497.29
46.7612	468.03
46.7756	486.15
46.7901	528.74
46.8045	518.22
46.8190	532.70
46.8334	497.68
46.8478	478.18
46.8623	488.33
46.8767	500.07
46.8912	494.23
46.9056	500.26
46.9200	484.46
46.9345	499.28
46.9489	510.12
46.9634	510.54
46.9778	534.24
46.9922	534.53
47.0067	533.75
47.0211	512.35
47.0356	506.35
47.0500	484.89
47.0644	481.45
47.0789	499.95
47.0933	517.71
47.1078	514.18
47.1222	514.33
47.1366	513.79
47.1511	477.48
47.1655	541.15
47.1800	524.44
47.1944	504.81
47.2088	501.87
47.2233	478.34
47.2377	488.30
47.2522	527.32
47.2666	526.79
47.2810	520.40
47.2955	445.49
47.3099	527.57
47.3244	544.78
47.3388	537.97
47.3532	494.00
47.3677	518.11
47.3821	498.56
47.3966	500.87
47.4110	488.49
47.4254	507.83
47.4399	484.13
47.4543	487.86
47.4688	486.14
47.4832	521.27
47.4976	532.25
47.5121	493.22
47.5265	522.79
47.5410	505.64
47.5554	504.11
47.5698	502.94
47.5843	495.94
47.5987	500.47
47.6132	524.66
47.6276	544.30
47.6420	523.31
47.6565	523.19
47.6709	495.24
47.6854	486.30
47.6998	484.86
47.7142	510.70
47.7287	501.85
47.7431	481.57
47.7576	489.96
47.7720	517.53
47.7864	485.39
47.8009	482.35
47.8153	475.46
47.8298	469.70
47.8442	489.17
47.8586	469.84
47.8731	479.25
47.8875	502.60
47.9020	458.61
47.9164	504.29
47.9308	508.31
47.9453	479.22
47.9597	503.99
47.9742	529.09
47.9886	508.15
48.0030	486.47
48.0175	514.28
48.0319	527.97
48.0464	496.86
48.0608	535.07
48.0752	504.60
48.0897	502.64
48.1041	472.21
48.1186	493.61
48.1330	507.17
48.1474	481.83
48.1619	486.98
48.1763	506.34
48.1908	496.41
48.2052	494.28
48.2196	531.91
48.2341	494.58
48.2485	532.32
48.2630	509.33
48.2774	509.10
48.2918	527.37
48.3063	507.25
48.3207	505.60
48.3352	502.42
48.3496	497.89
48.3640	453.25
48.3785	481.74
48.3929	489.18
48.4074	478.16
48.4218	513.66
48.4362	514.85
48.4507	490.88
48.4651	522.55
48.4796	484.31
48.4940	487.00
48.5084	481.92
48.5229	478.76
48.5373	495.37
48.5518	483.36
48.5662	517.95
48.5806	506.11
48.5951	496.51
48.6095	538.91
48.6240	518.65
48.6384	516.04
48.6528	508.24
48.6673	516.59
48.6817	519.52
48.6962	502.82
48.7106	524.08
48.7250	530.75
48.7395	547.19
48.7539	537.90
48.7684	527.73
48.7828	541.12
48.7972	557.30
48.8117	540.51
48.8261	544.20
48.8406	529.25
48.8550	567.99
48.8694	537.37
48.8839	566.67
48.8983	564.97
48.9128	551.11
48.9272	528.71
48.9416	542.09
48.9561	582.54
48.9705	571.78
48.9850	558.10
48.9994	602.29
49.0139	611.60
49.0283	570.17
49.0427	571.47
49.0572	627.28
49.0716	662.46
49.0861	662.36
49.1005	702.56
49.1149	721.00
49.1294	746.99
49.1438	779.29
49.1583	809.11
49.1727	886.14
49.1871	946.77
49.2016	953.42
49.2160	1009.71
49.2305	1091.51
49.2449	1223.15
49.2593	1285.41
49.2738	1349.26
49.2882	1490.55
49.3027	1614.12
49.3171	1668.40
49.3315	1761.70
49.3460	1799.06
49.3604	1867.32
49.3749	1841.57
49.3893	1805.18
49.4037	1814.10
49.4182	1781.13
49.4326	1805.17
49.4471	1655.57
49.4615	1626.43
49.4759	1634.95
49.4904	1484.68
49.5048	1421.48
49.5193	1318.95
49.5337	1291.29
49.5481	1194.99
49.5626	1081.26
49.5770	1064.83
49.5915	1036.04
49.6059	961.98
49.6203	872.90
49.6348	862.97
49.6492	814.17
49.6637	728.50
49.6781	723.26
49.6925	655.71
49.7070	668.10
49.7214	653.77
49.7359	623.29
49.7503	633.55
49.7647	585.50
49.7792	588.00
49.7936	615.64
49.8081	585.13
49.8225	546.40
49.8369	563.84
49.8514	555.20
49.8658	531.41
49.8803	566.95
49.8947	553.86
49.9091	564.14
49.9236	529.30
49.9380	555.77
49.9525	542.24
49.9669	528.74
49.9813	552.26
49.9958	539.38
50.0102	548.89
50.0247	518.80
50.0391	527.65
50.0535	557.06
50.0680	557.56
50.0824	520.99
50.0969	554.41
50.1113	533.39
50.1257	539.26
50.1402	517.64
50.1546	506.35
50.1691	531.91
50.1835	534.01
50.1979	534.00
50.2124	541.08
50.2268	537.36
50.2413	520.87
50.2557	517.79
50.2701	519.13
50.2846	509.17
50.2990	494.75
50.3135	486.64
50.3279	506.62
50.3423	508.50
50.3568	535.06
50.3712	510.07
50.3857	482.98
50.4001	500.49
50.4145	518.05
50.4290	524.16
50.4434	523.39
50.4579	523.65
50.4723	529.86
50.4867	572.30
50.5012	525.28
50.5156	505.17
50.5301	499.11
50.5445	499.03
50.5589	510.30
50.5734	511.37
50.5878	516.65
50.6023	525.08
50.6167	525.76
50.6311	504.94
50.6456	510.85
50.6600	501.99
50.6745	499.18
50.6889	463.75
50.7033	512.79
50.7178	534.06
50.7322	521.79
50.7467	507.53
50.7611	499.42
50.7755	501.56
50.7900	518.27
50.8044	497.27
50.8189	505.54
50.8333	523.38
50.8477	494.54
50.8622	494.04
50.8766	479.73
50.8911	473.91
50.9055	508.33
50.9199	509.76
50.9344	527.85
50.9488	514.67
50.9633	533.11
50.9777	517.26
50.9921	482.93
51.0066	479.76
51.0210	502.51
51.0355	522.78
51.0499	503.80
51.0643	500.19
51.0788	487.01
51.0932	521.45
51.1077	498.53
51.1221	527.42
51.1365	494.92
51.1510	495.19
51.1654	508.57
51.1799	491.44
51.1943	489.44
51.2087	506.46
51.2232	538.57
51.2376	514.80
51.2521	513.04
51.2665	535.04
51.2809	507.77
51.2954	495.42
51.3098	491.81
51.3243	489.71
51.3387	497.80
51.3531	488.09
51.3676	492.57
51.3820	508.67
51.3965	505.67
51.4109	496.57
51.4253	517.36
51.4398	480.78
51.4542	498.86
51.4687	516.80
51.4831	498.87
51.4975	531.89
51.5120	549.18
51.5264	518.37
51.5409	509.92
51.5553	532.32
51.5697	487.79
51.5842	489.72
51.5986	496.01
51.6131	486.73
51.6275	512.24
51.6419	515.82
51.6564	493.11
51.6708	494.95
51.6853	497.56
51.6997	521.49
51.7141	511.67
51.7286	493.28
51.7430	491.08
51.7575	474.43
51.7719	506.30
51.7863	514.53
51.8008	523.77
51.8152	536.48
51.8297	513.05
51.8441	515.25
51.8585	499.31
51.8730	535.25
51.8874	514.03
51.9019	526.44
51.9163	539.57
51.9307	496.09
51.9452	506.74
51.9596	469.48
51.9741	489.91
51.9885	486.42
52.0029	493.10
52.0174	489.95
52.0318	534.04
52.0463	517.51
52.0607	505.26
52.0751	513.65
52.0896	535.59
52.1040	525.96
52.1185	527.21
52.1329	511.55
52.1473	504.90
52.1618	528.78
52.1762	513.33
52.1907	501.78
52.2051	487.61
52.2195	526.10
52.2340	534.21
52.2484	513.98
52.2629	483.00
52.2773	497.30
52.2917	516.44
52.3062	531.91
52.3206	510.12
52.3351	495.53
52.3495	548.07
52.3639	503.08
52.3784	470.64
52.3928	487.67
52.4073	484.65
52.4217	514.35
52.4361	524.08
52.4506	501.21
52.4650	517.09
52.4795	502.55
52.4939	492.15
52.5083	541.51
52.5228	520.38
52.5372	532.38
52.5517	540.73
52.5661	500.68
52.5805	494.57
52.5950	489.27
52.6094	494.41
52.6239	506.16
52.6383	503.09
52.6527	499.27
52.6672	488.43
52.6816	487.13
52.6961	517.59
52.7105	459.37
52.7250	489.85
52.7394	474.04
52.7538	483.33
52.7683	519.80
52.7827	527.44
52.7972	532.44
52.8116	532.38
52.8260	513.21
52.8405	518.94
52.8549	500.51
52.8694	551.91
52.8838	494.03
52.8982	551.93
52.9127	509.18
52.9271	496.27
52.9416	492.24
52.9560	532.29
52.9704	519.69
52.9849	531.13
52.9993	535.39
53.0138	535.00
53.0282	497.60
53.0426	504.30
53.0571	519.71
53.0715	535.80
53.0860	527.52
53.1004	546.30
53.1148	523.89
53.1293	527.05
53.1437	503.98
53.1582	475.97
53.1726	532.53
53.1870	534.70
53.2015	478.49
53.2159	516.12
53.2304	506.66
53.2448	538.06
53.2592	463.23
53.2737	496.05
53.2881	524.67
53.3026	524.24
53.3170	522.07
53.3314	535.76
53.3459	479.70
53.3603	508.57
53.3748	502.85
53.3892	499.95
53.4036	477.23
53.4181	511.20
53.4325	541.87
53.4470	515.03
53.4614	535.52
53.4758	559.81
53.4903	525.97
53.5047	536.21
53.5192	524.22
53.5336	523.46
53.5480	485.92
53.5625	501.95
53.5769	499.52
53.5914	528.02
53.6058	511.17
53.6202	498.90
53.6347	522.77
53.6491	463.11
53.6636	510.01
53.6780	504.84
53.6924	534.25
53.7069	530.68
53.7213	541.61
53.7358	519.56
53.7502	489.33
53.7646	498.10
53.7791	527.05
53.7935	497.91
53.8080	517.81
53.8224	507.58
53.8368	518.23
53.8513	500.72
53.8657	520.24
53.8802	516.42
53.8946	503.11
53.9090	499.45
53.9235	506.76
53.9379	537.36
53.9524	497.24
53.9668	489.62
53.9812	515.67
53.9957	526.68
54.0101	501.45
54.0246	500.74
54.0390	513.40
54.0534	525.19
54.0679	539.11
54.0823	517.36
54.0968	512.16
54.1112	530.02
54.1256	535.09
54.1401	499.41
54.1545	528.39
54.1690	543.09
54.1834	548.80
54.1978	572.58
54.2123	592.79
54.2267	581.15
54.2412	600.57
54.2556	626.64
54.2700	647.27
54.2845	620.50
54.2989	611.51
54.3134	630.38
54.3278	621.38
54.3422	614.88
54.3567	610.80
54.3711	588.85
54.3856	607.31
54.4000	606.47
54.4144	575.38
54.4289	594.75
54.4433	610.11
54.4578	528.67
54.4722	539.00
54.4866	548.57
54.5011	544.33
54.5155	553.04
54.5300	541.90
54.5444	534.17
54.5588	508.45
54.5733	511.36
54.5877	526.02
54.6022	554.67
54.6166	549.65
54.6310	526.91
54.6455	503.89
54.6599	536.43
54.6744	503.79
54.6888	485.86
54.7032	511.60
54.7177	525.90
54.7321	523.70
54.7466	503.68
54.7610	504.88
54.7754	505.31
54.7899	501.01
54.8043	495.15
54.8188	530.19
54.8332	538.66
54.8476	531.50
54.8621	535.81
54.8765	541.74
54.8910	531.33
54.9054	547.31
54.9198	502.07
54.9343	535.00
54.9487	517.58
54.9632	479.67
54.9776	518.93
54.9920	509.34
55.0065	512.22
55.0209	521.96
55.0354	493.31
55.0498	511.13
55.0642	526.26
55.0787	525.52
55.0931	533.64
55.1076	521.48
55.1220	544.21
55.1364	521.84
55.1509	499.57
55.1653	516.71
55.1798	521.98
55.1942	526.24
55.2086	518.07
55.2231	494.16
55.2375	500.94
55.2520	500.99
55.2664	517.28
55.2808	509.84
55.2953	493.28
55.3097	508.24
55.3242	518.36
55.3386	557.88
55.3530	534.30
55.3675	493.73
55.3819	523.51
55.3964	519.25
55.4108	493.08
55.4252	536.67
55.4397	517.95
55.4541	458.96
55.4686	534.15
55.4830	554.02
55.4974	520.34
55.5119	498.10
55.5263	519.95
55.5408	517.45
55.5552	536.20
55.5696	506.97
55.5841	514.99
55.5985	525.25
55.6130	488.11
55.6274	485.89
55.6418	500.94
55.6563	508.36
55.6707	526.14
55.6852	528.48
55.6996	529.42
55.7140	540.68
55.7285	507.41
55.7429	506.97
55.7574	528.85
55.7718	555.49
55.7862	519.55
55.8007	492.55
55.8151	518.31
55.8296	552.20
55.8440	516.73
55.8584	539.59
55.8729	559.96
55.8873	548.87
55.9018	516.28
55.9162	552.60
55.9306	520.72
55.9451	517.13
55.9595	514.41
55.9740	528.50
55.9884	534.67
56.0028	527.42
56.0173	470.37
56.0317	504.56
56.0462	517.36
56.0606	496.66
56.0750	539.53
56.0895	548.95
56.1039	509.10
56.1184	523.81
56.1328	517.69
56.1472	490.62
56.1617	493.39
56.1761	531.74
56.1906	508.76
56.2050	512.94
56.2194	522.16
56.2339	519.09
56.2483	534.98
56.2628	497.71
56.2772	557.80
56.2916	537.85
56.3061	517.77
56.3205	521.50
56.3350	504.74
56.3494	492.06
56.3639	502.47
56.3783	479.12
56.3927	497.55
56.4072	490.61
56.4216	493.98
56.4361	512.89
56.4505	498.17
56.4649	522.09
56.4794	530.76
56.4938	545.30
56.5083	455.53
56.5227	464.64
56.5371	505.42
56.5516	515.74
56.5660	503.50
56.5805	513.99
56.5949	532.80
56.6093	502.25
56.6238	505.71
56.6382	528.35
56.6527	493.06
56.6671	523.41
56.6815	531.30
56.6960	512.57
56.7104	539.93
56.7249	483.19
56.7393	502.69
56.7537	509.86
56.7682	543.11
56.7826	535.46
56.7971	489.53
56.8115	528.08
56.8259	527.77
56.8404	509.54
56.8548	542.47
56.8693	543.10
56.8837	499.00
56.8981	572.98
56.9126	532.24
56.9270	514.82
56.9415	549.46
56.9559	511.80
56.9703	515.13
56.9848	532.29
56.9992	491.11
57.0137	489.35
57.0281	502.85
57.0425	503.01
57.0570	511.74
57.0714	539.23
57.0859	549.90
57.1003	462.09
57.1147	517.04
57.1292	590.65
57.1436	521.39
57.1581	516.26
57.1725	549.26
57.1869	503.18
57.2014	524.43
57.2158	536.15
57.2303	505.92
57.2447	505.37
57.2591	523.41
57.2736	505.42
57.2880	500.83
57.3025	507.36
57.3169	518.21
57.3313	511.77
57.3458	499.57
57.3602	507.25
57.3747	547.70
57.3891	499.46
57.4035	523.79
57.4180	516.89
57.4324	519.03
57.4469	499.13
57.4613	518.67
57.4757	532.83
57.4902	536.12
57.5046	518.52
57.5191	532.51
57.5335	521.57
57.5479	517.75
57.5624	527.78
57.5768	540.31
57.5913	556.12
57.6057	556.25
57.6201	512.00
57.6346	528.79
57.6490	518.31
57.6635	541.31
57.6779	520.76
57.6923	550.06
57.7068	606.36
57.7212	563.49
57.7357	533.80
57.7501	558.14
57.7645	601.87
57.7790	601.38
57.7934	637.78
57.8079	640.58
57.8223	695.91
57.8367	700.66
57.8512	700.97
57.8656	796.61
57.8801	752.65
57.8945	811.21
57.9089	741.62
57.9234	699.06
57.9378	698.74
57.9523	641.81
57.9667	640.92
57.9811	617.06
57.9956	658.61
58.0100	688.24
58.0245	686.74
58.0389	673.07
58.0533	667.80
58.0678	651.84
58.0822	614.74
58.0967	605.32
58.1111	563.40
58.1255	577.90
58.1400	561.37
58.1544	582.11
58.1689	572.72
58.1833	563.43
58.1977	558.22
58.2122	592.38
58.2266	541.43
58.2411	543.44
58.2555	555.24
58.2699	538.15
58.2844	564.95
58.2988	551.46
58.3133	536.61
58.3277	530.00
58.3421	564.66
58.3566	543.54
58.3710	546.37
58.3855	510.88
58.3999	527.21
58.4143	551.59
58.4288	560.96
58.4432	494.63
58.4577	500.20
58.4721	536.49
58.4865	510.34
58.5010	539.35
58.5154	544.73
58.5299	510.80
58.5443	515.98
58.5587	507.79
58.5732	499.80
58.5876	534.56
58.6021	514.31
58.6165	570.72
58.6309	583.20
58.6454	540.46
58.6598	545.92
58.6743	513.49
58.6887	526.49
58.7031	552.71
58.7176	536.40
58.7320	530.66
58.7465	540.79
58.7609	528.60
58.7753	511.26
58.7898	511.67
58.8042	531.34
58.8187	523.96
58.8331	508.76
58.8475	487.61
58.8620	538.56
58.8764	538.45
58.8909	527.36
58.9053	530.18
58.9197	497.68
58.9342	505.87
58.9486	533.22
58.9631	540.99
58.9775	550.44
58.9919	516.81
59.0064	495.79
59.0208	513.47
59.0353	519.55
59.0497	520.79
59.0641	524.45
59.0786	499.56
59.0930	541.14
59.1075	535.29
59.1219	531.00
59.1363	505.14
59.1508	485.51
59.1652	552.18
59.1797	556.20
59.1941	533.36
59.2085	529.99
59.2230	549.03
59.2374	545.65
59.2519	522.00
59.2663	549.70
59.2807	531.22
59.2952	547.39
59.3096	568.17
59.3241	537.92
59.3385	544.94
59.3529	574.01
59.3674	565.01
59.3818	534.92
59.3963	550.61
59.4107	542.54
59.4251	539.35
59.4396	534.09
59.4540	543.44
59.4685	574.92
59.4829	581.49
59.4973	558.02
59.5118	556.50
59.5262	578.82
59.5407	541.68
59.5551	531.21
59.5695	546.74
59.5840	545.46
59.5984	566.16
59.6129	536.08
59.6273	547.81
59.6417	535.99
59.6562	510.03
59.6706	523.59
59.6851	506.27
59.6995	513.12
59.7139	526.84
59.7284	507.56
59.7428	554.42
59.7573	538.45
59.7717	553.05
59.7861	549.21
59.8006	548.90
59.8150	540.97
59.8295	540.74
59.8439	516.43
59.8583	557.93
59.8728	535.28
59.8872	532.00
59.9017	539.43
59.9161	499.27
59.9305	538.21
59.9450	551.49
59.9594	526.80
59.9739	520.08
59.9883	577.41
60.0027	527.66
60.0172	549.12
60.0316	525.60
60.0461	516.37
60.0605	518.55
60.0750	506.70
60.0894	537.85
60.1038	505.67
60.1183	492.98
60.1327	561.72
60.1472	502.54
60.1616	537.27
60.1760	504.91
60.1905	521.50
60.2049	541.41
60.2194	543.63
60.2338	564.55
60.2482	515.76
60.2627	505.70
60.2771	513.05
60.2916	501.86
60.3060	524.26
60.3204	515.84
60.3349	526.83
60.3493	552.21
60.3638	554.79
60.3782	524.29
60.3926	485.59
60.4071	529.01
60.4215	542.14
60.4360	516.11
60.4504	527.32
60.4648	576.75
60.4793	565.65
60.4937	560.60
60.5082	506.32
60.5226	550.49
60.5370	560.84
60.5515	507.78
60.5659	532.45
60.5804	533.02
60.5948	498.41
60.6092	536.53
60.6237	512.31
60.6381	529.57
60.6526	545.88
60.6670	542.40
60.6814	516.84
60.6959	529.72
60.7103	511.56
60.7248	527.76
60.7392	516.51
60.7536	537.52
60.7681	536.06
60.7825	536.86
60.7970	522.03
60.8114	570.15
60.8258	567.06
60.8403	539.38
60.8547	557.58
60.8692	536.88
60.8836	509.93
60.8980	565.55
60.9125	565.60
60.9269	575.18
60.9414	575.77
60.9558	510.78
60.9702	521.83
60.9847	530.95
60.9991	556.25
61.0136	577.78
61.0280	518.14
61.0424	557.21
61.0569	522.12
61.0713	531.54
61.0858	524.47
61.1002	537.81
61.1146	547.12
61.1291	552.26
61.1435	525.51
61.1580	544.35
61.1724	564.51
61.1868	553.86
61.2013	530.35
61.2157	513.22
61.2302	510.69
61.2446	530.72
61.2590	551.98
61.2735	531.02
61.2879	540.88
61.3024	501.42
61.3168	536.45
61.3312	560.95
61.3457	569.89
61.3601	543.86
61.3746	539.98
61.3890	558.08
61.4034	538.30
61.4179	543.12
61.4323	577.18
61.4468	541.01
61.4612	560.30
61.4756	536.87
61.4901	503.13
61.5045	513.05
61.5190	551.15
61.5334	548.79
61.5478	550.06
61.5623	558.61
61.5767	525.08
61.5912	556.11
61.6056	536.15
61.6200	510.77
61.6345	533.99
61.6489	557.97
61.6634	557.19
61.6778	559.71
61.6922	554.45
61.7067	570.10
61.7211	561.96
61.7356	562.22
61.7500	542.98
61.7644	519.53
61.7789	538.35
61.7933	546.79
61.8078	541.17
61.8222	537.23
61.8366	546.01
61.8511	554.86
61.8655	555.56
61.8800	542.51
61.8944	565.85
61.9088	578.48
61.9233	533.37
61.9377	545.46
61.9522	537.77
61.9666	548.40
61.9810	534.75
61.9955	573.33
62.0099	527.33
62.0244	541.84
62.0388	552.27
62.0532	598.50
62.0677	532.84
62.0821	539.95
62.0966	540.91
62.1110	543.80
62.1254	552.58
62.1399	520.86
62.1543	540.27
62.1688	541.96
62.1832	537.03
62.1976	532.24
62.2121	540.25
62.2265	584.74
62.2410	588.60
62.2554	562.93
62.2698	529.35
62.2843	552.90
62.2987	547.56
62.3132	543.71
62.3276	541.48
62.3420	540.22
62.3565	516.08
62.3709	517.08
62.3854	564.80
62.3998	577.34
62.4142	568.47
62.4287	559.43
62.4431	559.59
62.4576	593.26
62.4720	571.65
62.4864	557.77
62.5009	539.33
62.5153	549.33
62.5298	537.28
62.5442	580.70
62.5586	584.24
62.5731	537.52
62.5875	562.06
62.6020	544.59
62.6164	570.16
62.6308	574.32
62.6453	574.88
62.6597	541.24
62.6742	516.88
62.6886	573.31
62.7030	580.54
62.7175	567.56
62.7319	565.29
62.7464	563.42
62.7608	554.61
62.7752	571.05
62.7897	578.93
62.8041	579.66
62.8186	556.78
62.8330	568.56
62.8474	547.78
62.8619	529.43
62.8763	516.48
62.8908	545.20
62.9052	583.74
62.9196	552.87
62.9341	576.92
62.9485	582.24
62.9630	571.49
62.9774	573.83
62.9918	585.29
63.0063	555.59
63.0207	577.40
63.0352	606.49
63.0496	575.60
63.0640	561.92
63.0785	569.21
63.0929	574.41
63.1074	562.65
63.1218	605.50
63.1362	582.88
63.1507	548.25
63.1651	566.81
63.1796	568.39
63.1940	567.31
63.2084	614.37
63.2229	609.16
63.2373	573.35
63.2518	566.81
63.2662	564.58
63.2806	608.60
63.2951	582.54
63.3095	598.74
63.3240	584.48
63.3384	607.35
63.3528	605.81
63.3673	604.95
63.3817	591.13
63.3962	613.77
63.4106	587.96
63.4250	628.21
63.4395	612.17
63.4539	674.17
63.4684	732.73
63.4828	729.18
63.4972	745.81
63.5117	809.32
63.5261	858.12
63.5406	915.41
63.5550	948.69
63.5694	926.54
63.5839	959.69
63.5983	931.82
63.6128	870.89
63.6272	847.48
63.6416	759.29
63.6561	754.22
63.6705	756.07
63.6850	773.34
63.6994	795.87
63.7138	852.52
63.7283	851.51
63.7427	830.23
63.7572	793.28
63.7716	759.04
63.7861	739.64
63.8005	767.65
63.8149	717.42
63.8294	683.41
63.8438	649.38
63.8583	663.03
63.8727	661.86
63.8871	604.43
63.9016	614.98
63.9160	592.55
63.9305	639.87
63.9449	638.24
63.9593	638.95
63.9738	585.72
63.9882	583.43
64.0027	613.41
64.0171	614.86
64.0315	642.20
64.0460	603.71
64.0604	657.45
64.0749	587.13
64.0893	616.91
64.1037	592.24
64.1182	604.44
64.1326	602.08
64.1471	584.34
64.1615	613.40
64.1759	565.00
64.1904	607.08
64.2048	590.43
64.2193	605.39
64.2337	607.54
64.2481	631.19
64.2626	586.64
64.2770	566.28
64.2915	575.46
64.3059	571.65
64.3203	571.33
64.3348	640.13
64.3492	600.40
64.3637	592.04
64.3781	630.11
64.3925	588.88
64.4070	604.41
64.4214	626.96
64.4359	657.75
64.4503	576.96
64.4647	586.49
64.4792	577.70
64.4936	578.54
64.5081	585.40
64.5225	610.87
64.5369	600.28
64.5514	624.19
64.5658	602.33
64.5803	630.18
64.5947	629.65
64.6091	648.42
64.6236	667.71
64.6380	640.75
64.6525	654.45
64.6669	640.44
64.6813	627.42
64.6958	676.08
64.7102	678.95
64.7247	654.17
64.7391	688.83
64.7535	684.32
64.7680	656.35
64.7824	721.67
64.7969	701.92
64.8113	735.48
64.8257	766.00
64.8402	784.44
64.8546	800.80
64.8691	831.11
64.8835	807.12
64.8979	856.66
64.9124	850.25
64.9268	877.55
64.9413	918.63
64.9557	990.47
64.9701	1004.44
64.9846	1066.65
64.9990	1139.50
65.0135	1277.25
65.0279	1364.73
65.0423	1580.58
65.0568	1984.27
65.0712	2524.01
65.0857	3217.57
65.1001	4333.42
65.1145	5818.40
65.1290	7634.73
65.1434	9240.01
65.1579	10772.00
65.1723	11577.73
65.1867	11127.84
65.2012	9828.98
65.2156	8245.84
65.2301	6563.55
65.2445	5184.64
65.2589	4357.73
65.2734	4120.23
65.2878	4304.80
65.3023	4849.78
65.3167	5598.15
65.3311	6490.26
65.3456	6899.19
65.3600	6751.39
65.3745	6243.40
65.3889	5435.00
65.4033	4377.25
65.4178	3466.52
65.4322	2772.84
65.4467	2079.43
65.4611	1700.64
65.4755	1449.21
65.4900	1254.10
65.5044	1152.27
65.5189	1002.84
65.5333	985.22
65.5477	943.15
65.5622	869.84
65.5766	816.31
65.5911	788.83
65.6055	791.38
65.6199	782.82
65.6344	770.09
65.6488	735.64
65.6633	734.68
65.6777	727.40
65.6921	709.51
65.7066	728.23
65.7210	691.87
65.7355	692.61
65.7499	684.21
65.7643	668.50
65.7788	672.71
65.7932	667.90
65.8077	668.54
65.8221	662.85
65.8365	660.35
65.8510	643.83
65.8654	623.70
65.8799	629.94
65.8943	621.37
65.9087	663.19
65.9232	666.78
65.9376	667.56
65.9521	635.35
65.9665	635.50
65.9809	644.85
65.9954	662.31
66.0098	627.30
66.0243	629.83
66.0387	662.15
66.0531	634.42
66.0676	602.51
66.0820	610.71
66.0965	648.85
66.1109	645.17
66.1253	661.44
66.1398	627.01
66.1542	596.35
66.1687	612.28
66.1831	595.37
66.1975	599.92
66.2120	599.18
66.2264	622.14
66.2409	620.16
66.2553	600.45
66.2697	609.40
66.2842	612.98
66.2986	566.62
66.3131	590.60
66.3275	614.93
66.3419	594.83
66.3564	603.24
66.3708	587.67
66.3853	582.91
66.3997	563.06
66.4141	603.33
66.4286	607.17
66.4430	585.82
66.4575	586.90
66.4719	593.22
66.4863	594.09
66.5008	555.68
66.5152	575.61
66.5297	582.38
66.5441	577.06
66.5585	583.87
66.5730	584.87
66.5874	621.65
66.6019	624.10
66.6163	575.79
66.6307	582.42
66.6452	564.91
66.6596	596.04
66.6741	567.76
66.6885	565.38
66.7029	576.83
66.7174	572.71
66.7318	574.01
66.7463	594.56
66.7607	593.49
66.7751	579.17
66.7896	592.79
66.8040	605.96
66.8185	609.12
66.8329	577.40
66.8473	575.04
66.8618	580.40
66.8762	564.06
66.8907	566.67
66.9051	612.73
66.9195	593.74
66.9340	583.26
66.9484	634.05
66.9629	631.67
66.9773	576.44
66.9917	549.29
67.0062	596.62
67.0206	578.33
67.0351	582.30
67.0495	598.21
67.0639	577.38
67.0784	570.18
67.0928	590.34
67.1073	602.33
67.1217	582.52
67.1361	588.63
67.1506	565.13
67.1650	619.81
67.1795	562.58
67.1939	552.45
67.2083	575.26
67.2228	583.87
67.2372	561.03
67.2517	606.94
67.2661	559.71
67.2805	568.79
67.2950	548.12
67.3094	557.20
67.3239	558.25
67.3383	559.40
67.3527	591.24
67.3672	589.73
67.3816	573.52
67.3961	571.16
67.4105	600.82
67.4250	586.67
67.4394	567.92
67.4538	550.40
67.4683	594.74
67.4827	584.73
67.4972	568.79
67.5116	562.73
67.5260	555.45
67.5405	553.02
67.5549	565.47
67.5694	561.71
67.5838	566.55
67.5982	557.61
67.6127	548.00
67.6271	563.44
67.6416	560.59
67.6560	526.11
67.6704	562.66
67.6849	549.56
67.6993	598.74
67.7138	551.85
67.7282	539.07
67.7426	587.10
67.7571	556.51
67.7715	529.20
67.7860	605.04
67.8004	568.11
67.8148	590.65
67.8293	551.43
67.8437	579.52
67.8582	548.47
67.8726	574.29
67.8870	563.48
67.9015	571.02
67.9159	556.69
67.9304	553.31
67.9448	597.98
67.9592	572.28
67.9737	561.87
67.9881	563.63
68.0026	577.19
68.0170	613.66
68.0314	588.49
68.0459	574.77
68.0603	595.14
68.0748	587.68
68.0892	622.88
68.1036	562.48
68.1181	574.77
68.1325	612.87
68.1470	526.66
68.1614	562.53
68.1758	564.46
68.1903	540.60
68.2047	533.01
68.2192	557.50
68.2336	548.02
68.2480	582.54
68.2625	570.46
68.2769	575.37
68.2914	577.87
68.3058	533.26
68.3202	548.25
68.3347	590.43
68.3491	567.70
68.3636	560.08
68.3780	589.19
68.3924	549.55
68.4069	549.37
68.4213	547.56
68.4358	617.78
68.4502	590.51
68.4646	597.12
68.4791	592.89
68.4935	584.45
68.5080	529.41
68.5224	565.85
68.5368	595.60
68.5513	561.55
68.5657	604.12
68.5802	547.50
68.5946	572.40
68.6090	609.33
68.6235	561.08
68.6379	600.54
68.6524	540.79
68.6668	591.27
68.6812	585.81
68.6957	566.42
68.7101	539.41
68.7246	561.18
68.7390	592.54
68.7534	562.34
68.7679	573.88
68.7823	549.76
68.7968	582.38
68.8112	565.48
68.8256	553.45
68.8401	553.46
68.8545	583.76
68.8690	582.87
68.8834	547.82
68.8978	574.71
68.9123	603.93
68.9267	610.65
68.9412	581.93
68.9556	571.32
68.9700	577.01
68.9845	590.34
68.9989	580.56
69.0134	560.55
69.0278	579.67
69.0422	570.16
69.0567	535.19
69.0711	557.01
69.0856	601.53
69.1000	644.19
69.1144	594.99
69.1289	576.92
69.1433	547.23
69.1578	536.65
69.1722	621.92
69.1866	581.24
69.2011	579.90
69.2155	560.72
69.2300	565.37
69.2444	552.13
69.2588	578.29
69.2733	547.00
69.2877	574.45
69.3022	571.43
69.3166	540.58
69.3310	606.63
69.3455	563.20
69.3599	571.01
69.3744	535.14
69.3888	547.96
69.4032	599.53
69.4177	565.14
69.4321	594.36
69.4466	564.69
69.4610	548.93
69.4754	592.18
69.4899	600.11
69.5043	569.08
69.5188	587.23
69.5332	622.57
69.5476	569.38
69.5621	563.98
69.5765	590.50
69.5910	545.45
69.6054	582.34
69.6198	583.81
69.6343	617.78
69.6487	555.98
69.6632	565.67
69.6776	552.47
69.6920	556.40
69.7065	573.36
69.7209	581.08
69.7354	607.03
69.7498	604.82
69.7642	564.97
69.7787	586.26
69.7931	582.24
69.8076	575.89
69.8220	540.57
69.8364	536.98
69.8509	544.47
69.8653	577.63
69.8798	529.85
69.8942	619.80
69.9086	615.32
69.9231	543.51
69.9375	590.10
69.9520	625.32
69.9664	544.24
69.9808	588.87
69.9953	583.52
70.0097	610.25
70.0242	591.78
70.0386	562.06
70.0530	565.15
70.0675	586.81
70.0819	583.08
70.0964	573.56
70.1108	588.40
70.1252	576.34
70.1397	583.46
70.1541	579.94
70.1686	603.16
70.1830	559.50
70.1974	547.13
70.2119	605.39
70.2263	580.76
70.2408	596.16
70.2552	595.55
70.2696	623.73
70.2841	601.43
70.2985	548.55
70.3130	564.70
70.3274	603.53
70.3418	576.60
70.3563	576.11
70.3707	599.15
70.3852	545.77
70.3996	518.31
70.4140	519.39
70.4285	584.96
70.4429	549.39
70.4574	548.09
70.4718	597.42
70.4862	587.23
70.5007	560.85
70.5151	582.76
70.5296	617.24
70.5440	533.37
70.5584	523.62
70.5729	553.62
70.5873	570.88
70.6018	583.06
70.6162	567.41
70.6306	594.35
70.6451	568.80
70.6595	594.61
70.6740	596.55
70.6884	535.75
70.7028	583.52
70.7173	615.64
70.7317	618.39
70.7462	574.44
70.7606	585.93
70.7750	557.21
70.7895	572.46
70.8039	612.21
70.8184	600.27
70.8328	591.63
70.8472	497.16
70.8617	530.41
70.8761	556.60
70.8906	559.94
70.9050	550.22
70.9194	604.50
70.9339	604.33
70.9483	594.56
70.9628	594.23
70.9772	616.55
70.9916	612.58
71.0061	575.79
71.0205	609.53
71.0350	563.18
71.0494	559.14
71.0638	553.61
71.0783	594.83
71.0927	595.04
71.1072	628.38
71.1216	637.52
71.1361	583.86
71.1505	555.07
71.1649	613.94
71.1794	636.24
71.1938	617.94
71.2083	584.77
71.2227	589.42
71.2371	608.21
71.2516	598.60
71.2660	586.12
71.2805	575.28
71.2949	597.21
71.3093	578.55
71.3238	547.57
71.3382	539.22
71.3527	575.02
71.3671	568.99
71.3815	571.23
71.3960	576.24
71.4104	576.50
71.4249	607.95
71.4393	609.22
71.4537	581.65
71.4682	585.90
71.4826	552.41
71.4971	551.42
71.5115	545.66
71.5259	541.21
71.5404	577.44
71.5548	575.11
71.5693	554.99
71.5837	561.84
71.5981	545.62
71.6126	569.61
71.6270	542.68
71.6415	511.07
71.6559	563.91
71.6703	570.60
71.6848	590.13
71.6992	644.17
71.7137	630.92
71.7281	551.47
71.7425	556.23
71.7570	554.88
71.7714	579.42
71.7859	544.87
71.8003	571.22
71.8147	556.60
71.8292	560.38
71.8436	624.58
71.8581	577.42
71.8725	543.54
71.8869	554.00
71.9014	715.79
71.9158	686.06
71.9303	546.34
71.9447	571.24
71.9591	576.52
71.9736	552.98
71.9880	554.51
72.0025	534.84
72.0169	549.61
72.0313	606.19
72.0458	623.74
72.0602	571.06
72.0747	555.40
72.0891	591.07
72.1035	648.97
72.1180	577.95
72.1324	536.97
72.1469	593.00
72.1613	551.16
72.1757	615.66
72.1902	681.43
72.2046	618.14
72.2191	569.83
72.2335	586.59
72.2479	605.71
72.2624	620.67
72.2768	606.23
72.2913	559.64
72.3057	500.71
72.3201	543.68
72.3346	590.32
72.3490	547.04
72.3635	553.30
72.3779	626.66
72.3923	585.12
72.4068	594.90
72.4212	540.59
72.4357	561.76
72.4501	566.49
72.4645	590.14
72.4790	601.18
72.4934	505.24
72.5079	557.21
72.5223	567.65
72.5367	516.31
72.5512	538.83
72.5656	577.24
72.5801	512.16
72.5945	490.82
72.6089	567.01
72.6234	593.96
72.6378	610.33
72.6523	571.68
72.6667	535.40
72.6811	477.33
72.6956	561.40
72.7100	614.29
72.7245	497.82
72.7389	549.76
72.7533	615.87
72.7678	578.88
72.7822	604.92
72.7967	565.33
72.8111	524.61
72.8255	569.98
72.8400	536.69
72.8544	442.22
72.8689	541.78
72.8833	598.65

Result vector
22.1120	492.37
22.1264	593.53
22.1409	574.74
22.1553	560.90
22.1697	558.64
22.1842	558.17
22.1986	612.31
22.2131	551.32
22.2275	588.51
22.2419	608.06
22.2564	566.99
22.2708	518.07
22.2853	601.41
22.2997	497.03
22.3141	635.22
22.3286	563.59
22.3430	569.74
22.3575	617.34
22.3719	664.72
22.3863	537.47
22.4008	513.44
22.4152	647.17
22.4297	655.61
22.4441	640.27
22.4585	593.50
22.4730	602.28
22.4874	685.83
22.5019	661.67
22.5163	481.60
22.5307	649.28
22.5452	555.14
22.5596	580.32
22.5741	614.70
22.5885	568.71
22.6029	565.13
22.6174	616.59
22.6318	524.84
22.6463	565.25
22.6607	653.57
22.6751	604.84
22.6896	561.61
22.7040	572.66
22.7185	702.68
22.7329	631.20
22.7473	525.19
22.7618	590.24
22.7762	667.11
22.7907	647.96
22.8051	604.10
22.8195	611.98
22.8340	526.07
22.8484	523.63
22.8629	605.41
22.8773	591.99
22.8917	489.01
22.9062	631.16
22.9206	566.55
22.9351	507.40
22.9495	559.32
22.9639	532.16
22.9784	524.15
22.9928	597.42
23.0073	504.25
23.0217	574.43
23.0361	635.76
23.0506	616.52
23.0650	613.53
23.0795	534.84
23.0939	521.17
23.1083	513.93
23.1228	583.08
23.1372	526.29
23.1517	538.15
23.1661	517.02
23.1806	529.14
23.1950	549.47
23.2094	475.09
23.2239	538.02
23.2383	607.18
23.2528	555.93
23.2672	607.02
23.2816	591.06
23.2961	577.42
23.3105	566.54
23.3250	519.20
23.3394	600.28
23.3538	597.32
23.3683	608.32
23.3827	551.62
23.3972	497.76
23.4116	559.20
23.4260	561.36
23.4405	560.87
23.4549	578.85
23.4694	581.56
23.4838	509.26
23.4982	602.16
23.5127	528.09
23.5271	523.74
23.5416	587.01
23.5560	554.01
23.5704	593.89
23.5849	568.58
23.5993	538.50
23.6138	534.89
23.6282	533.34
23.6426	546.79
23.6571	625.24
23.6715	554.29
23.6860	550.35
23.7004	567.69
23.7148	579.31
23.7293	535.63
23.7437	554.28
23.7582	630.28
23.7726	627.44
23.7870	570.32
23.8015	579.10
23.8159	508.08
23.8304	578.22
23.8448	506.44
23.8592	553.49
23.8737	570.64
23.8881	495.94
23.9026	591.24
23.9170	523.36
23.9314	557.40
23.9459	584.91
23.9603	509.95
23.9748	517.25
23.9892	587.30
24.0036	532.76
24.0181	575.46
24.0325	555.82
24.0470	546.97
24.0614	513.89
24.0758	603.31
24.0903	588.06
24.1047	523.58
24.1192	552.50
24.1336	537.45
24.1480	499.29
24.1625	584.32
24.1769	604.46
24.1914	580.77
24.2058	537.31
24.2202	615.41
24.2347	656.96
24.2491	632.61
24.2636	528.93
24.2780	518.60
24.2924	539.67
24.3069	560.42
24.3213	559.73
24.3358	578.76
24.3502	525.26
24.3646	510.69
24.3791	557.86
24.3935	508.75
24.4080	492.39
24.4224	599.58
24.4368	511.25
24.4513	550.65
24.4657	580.59
24.4802	564.24
24.4946	531.17
24.5090	541.09
24.5235	536.84
24.5379	514.29
24.5524	550.30
24.5668	539.63
24.5812	557.51
24.5957	516.30
24.6101	573.73
24.6246	569.40
24.6390	538.90
24.6534	524.43
24.6679	557.28
24.6823	540.70
24.6968	544.22
24.7112	554.92
24.7256	543.15
24.7401	567.95
24.7545	554.62
24.7690	529.02
24.7834	514.11
24.7978	570.58
24.8123	521.21
24.8267	557.20
24.8412	545.75
24.8556	560.84
24.8700	558.06
24.8845	569.39
24.8989	568.24
24.9134	544.54
24.9278	557.66
24.9422	580.72
24.9567	523.74
24.9711	534.34
24.9856	540.65
25.0000	553.99
25.0144	619.73
25.0289	530.70
25.0433	554.91
25.0578	523.51
25.0722	528.14
25.0866	520.11
25.1011	594.11
25.1155	599.79
25.1300	536.84
25.1444	530.01
25.1588	543.92
25.1733	526.83
25.1877	565.88
25.2022	541.47
25.2166	529.78
25.2310	544.92
25.2455	546.39
25.2599	500.54
25.2744	570.40
25.2888	549.29
25.3032	503.87
25.3177	546.33
25.3321	568.91
25.3466	529.67
25.3610	546.74
25.3754	532.46
25.3899	498.25
25.4043	546.18
25.4188	556.07
25.4332	508.73
25.4476	498.49
25.4621	517.59
25.4765	554.39
25.4910	520.62
25.5054	543.12
25.5198	524.77
25.5343	535.37
25.5487	509.42
25.5632	544.86
25.5776	571.92
25.5920	545.35
25.6065	554.88
25.6209	545.23
25.6354	522.77
25.6498	555.73
25.6642	571.37
25.6787	583.43
25.6931	528.74
25.7076	585.92
25.7220	577.65
25.7364	500.71
25.7509	550.34
25.7653	553.89
25.7798	529.45
25.7942	551.76
25.8086	530.03
25.8231	534.32
25.8375	579.09
25.8520	539.77
25.8664	544.08
25.8808	544.29
25.8953	580.11
25.9097	552.83
25.9242	533.34
25.9386	540.99
25.9530	514.76
25.9675	520.53
25.9819	563.32
25.9964	529.38
26.0108	504.22
26.0252	518.69
26.0397	549.28
26.0541	544.40
26.0686	507.62
26.0830	550.66
26.0974	543.20
26.1119	527.15
26.1263	530.26
26.1408	506.78
26.1552	494.87
26.1696	557.57
26.1841	542.27
26.1985	530.88
26.2130	510.81
26.2274	544.37
26.2418	556.52
26.2563	527.69
26.2707	505.20
26.2852	552.91
26.2996	543.15
26.3140	514.77
26.3285	556.70
26.3429	533.49
26.3574	545.20
26.3718	544.62
26.3862	544.64
26.4007	522.35
26.4151	551.86
26.4296	560.27
26.4440	525.12
26.4584	503.43
26.4729	495.16
26.4873	499.54
26.5018	519.04
26.5162	497.76
26.5306	536.28
26.5451	544.04
26.5595	574.30
26.5740	534.00
26.5884	538.52
26.6028	534.12
26.6173	523.02
26.6317	556.74
26.6462	571.66
26.6606	571.96
26.6750	564.22
26.6895	527.84
26.7039	521.49
26.7184	513.93
26.7328	529.64
26.7472	541.80
26.7617	518.49
26.7761	514.18
26.7906	507.10
26.8050	504.17
26.8194	515.60
26.8339	547.68
26.8483	550.98
26.8628	574.70
26.8772	579.07
26.8917	550.63
26.9061	532.00
26.9205	506.43
26.9350	501.73
26.9494	520.41
26.9639	555.39
26.9783	507.95
26.9927	484.47
27.0072	491.70
27.0216	535.03
27.0361	554.82
27.0505	499.25
27.0649	533.36
27.0794	529.49
27.0938	525.95
27.1083	527.89
27.1227	553.39
27.1371	512.42
27.1516	510.51
27.1660	511.63
27.1805	500.81
27.1949	503.67
27.2093	516.33
27.2238	542.43
27.2382	525.26
27.2527	535.03
27.2671	530.76
27.2815	526.96
27.2960	488.25
27.3104	526.35
27.3249	511.66
27.3393	525.25
27.3537	523.38
27.3682	528.70
27.3826	497.81
27.3971	464.33
27.4115	518.16
27.4259	537.26
27.4404	541.96
27.4548	522.60
27.4693	536.78
27.4837	515.58
27.4981	499.41
27.5126	514.01
27.5270	542.83
27.5415	536.05
27.5559	500.02
27.5703	514.69
27.5848	518.76
27.5992	516.61
27.6137	529.03
27.6281	559.82
27.6425	542.46
27.6570	516.94
27.6714	521.38
27.6859	510.07
27.7003	514.05
27.7147	552.10
27.7292	549.01
27.7436	489.06
27.7581	504.12
27.7725	529.32
27.7869	523.02
27.8014	517.81
27.8158	488.54
27.8303	531.61
27.8447	484.37
27.8591	505.40
27.8736	527.26
27.8880	538.95
27.9025	556.06
27.9169	525.58
27.9313	534.55
27.9458	518.62
27.9602	505.28
27.9747	506.67
27.9891	494.87
28.0035	491.66
28.0180	535.40
28.0324	529.34
28.0469	493.30
28.0613	524.23
28.0757	498.49
28.0902	495.58
28.1046	484.63
28.1191	507.18
28.1335	489.50
28.1479	472.91
28.1624	538.86
28.1768	535.93
28.1913	524.87
28.2057	499.07
28.2201	541.28
28.2346	532.79
28.2490	503.78
28.2635	526.82
28.2779	531.13
28.2923	507.11
28.3068	516.09
28.3212	492.72
28.3357	511.75
28.3501	500.10
28.3645	523.96
28.3790	474.82
28.3934	502.04
28.4079	528.98
28.4223	521.44
28.4367	501.14
28.4512	529.06
28.4656	544.45
28.4801	528.64
28.4945	507.14
28.5089	507.11
28.5234	546.68
28.5378	529.72
28.5523	511.92
28.5667	554.04
28.5811	501.20
28.5956	480.42
28.6100	494.41
28.6245	506.33
28.6389	526.14
28.6533	527.03
28.6678	511.37
28.6822	530.03
28.6967	477.14
28.7111	511.25
28.7255	493.77
28.7400	499.96
28.7544	503.89
28.7689	513.74
28.7833	498.66
28.7977	479.81
28.8122	521.00
28.8266	509.80
28.8411	508.05
28.8555	526.17
28.8699	514.35
28.8844	540.13
28.8988	526.02
28.9133	513.93
28.9277	545.98
28.9421	511.41
28.9566	507.84
28.9710	503.99
28.9855	465.26
28.9999	534.38
29.0143	487.02
29.0288	492.12
29.0432	461.08
29.0577	500.38
29.0721	485.97
29.0865	538.55
29.1010	501.02
29.1154	487.87
29.1299	520.73
29.1443	512.34
29.1587	512.28
29.1732	523.86
29.1876	490.85
29.2021	523.31
29.2165	508.06
29.2309	510.08
29.2454	507.20
29.2598	493.81
29.2743	509.73
29.2887	512.95
29.3031	513.55
29.3176	486.63
29.3320	518.92
29.3465	509.82
29.3609	482.41
29.3753	493.13
29.3898	471.75
29.4042	527.65
29.4187	539.81
29.4331	512.33
29.4475	492.59
29.4620	504.59
29.4764	503.99
29.4909	480.16
29.5053	501.63
29.5197	488.85
29.5342	518.99
29.5486	500.06
29.5631	509.15
29.5775	511.25
29.5919	536.68
29.6064	511.59
29.6208	512.13
29.6353	536.41
29.6497	516.61
29.6641	495.75
29.6786	504.64
29.6930	495.71
29.7075	487.64
29.7219	482.35
29.7363	486.45
29.7508	490.21
29.7652	486.48
29.7797	505.36
29.7941	497.59
29.8085	522.57
29.8230	492.53
29.8374	538.73
29.8519	508.17
29.8663	516.92
29.8807	512.23
29.8952	499.65
29.9096	504.61
29.9241	478.34
29.9385	453.80
29.9529	499.46
29.9674	484.73
29.9818	484.20
29.9963	482.39
30.0107	505.71
30.0251	511.80
30.0396	506.01
30.0540	488.66
30.0685	506.95
30.0829	534.07
30.0973	462.05
30.1118	500.29
30.1262	537.84
30.1407	512.34
30.1551	492.25
30.1695	538.76
30.1840	518.32
30.1984	500.89
30.2129	514.60
30.2273	505.83
30.2417	492.45
30.2562	543.30
30.2706	516.57
30.2851	504.97
30.2995	490.78
30.3139	506.76
30.3284	507.96
30.3428	538.83
30.3573	510.65
30.3717	507.03
30.3861	483.20
30.4006	522.59
30.4150	535.13
30.4295	510.90
30.4439	550.97
30.4583	561.65
30.4728	591.60
30.4872	599.48
30.5017	612.95
30.5161	658.15
30.5305	690.99
30.5450	715.07
30.5594	715.00
30.5739	727.08
30.5883	749.48
30.6028	750.54
30.6172	742.63
30.6316	712.67
30.6461	718.38
30.6605	675.25
30.6750	636.38
30.6894	597.80
30.7038	545.00
30.7183	549.77
30.7327	543.23
30.7472	538.93
30.7616	538.13
30.7760	570.40
30.7905	541.15
30.8049	536.73
30.8194	517.99
30.8338	509.88
30.8482	488.75
30.8627	476.83
30.8771	487.07
30.8916	526.38
30.9060	518.92
30.9204	480.93
30.9349	514.01
30.9493	508.57
30.9638	496.15
30.9782	486.93
30.9926	486.33
31.0071	534.98
31.0215	537.35
31.0360	489.60
31.0504	502.92
31.0648	510.70
31.0793	501.15
31.0937	522.21
31.1082	520.64
31.1226	545.95
31.1370	507.41
31.1515	505.16
31.1659	500.94
31.1804	516.37
31.1948	510.32
31.2092	517.25
31.2237	526.89
31.2381	507.93
31.2526	491.44
31.2670	513.96
31.2814	532.68
31.2959	532.68
31.3103	540.86
31.3248	545.11
31.3392	526.02
31.3536	537.24
31.3681	531.54
31.3825	536.78
31.3970	527.54
31.4114	530.32
31.4258	572.15
31.4403	536.17
31.4547	546.60
31.4692	524.21
31.4836	517.77
31.4980	497.82
31.5125	505.45
31.5269	481.19
31.5414	493.01
31.5558	499.13
31.5702	545.19
31.5847	534.56
31.5991	493.04
31.6136	521.40
31.6280	501.85
31.6424	491.54
31.6569	472.87
31.6713	491.84
31.6858	473.64
31.7002	491.78
31.7146	481.29
31.7291	491.18
31.7435	474.94
31.7580	496.78
31.7724	506.90
31.7868	526.94
31.8013	511.29
31.8157	529.81
31.8302	495.76
31.8446	489.71
31.8590	526.27
31.8735	529.65
31.8879	484.77
31.9024	526.28
31.9168	553.65
31.9312	513.72
31.9457	507.98
31.9601	490.68
31.9746	502.18
31.9890	490.07
32.0034	511.37
32.0179	537.61
32.0323	503.16
32.0468	490.25
32.0612	495.19
32.0756	473.30
32.0901	491.84
32.1045	456.97
32.1190	500.21
32.1334	516.06
32.1478	522.55
32.1623	492.54
32.1767	528.14
32.1912	513.74
32.2056	493.98
32.2200	494.19
32.2345	491.53
32.2489	485.80
32.2634	492.52
32.2778	471.73
32.2922	488.05
32.3067	519.20
32.3211	514.62
32.3356	552.33
32.3500	470.24
32.3644	519.04
32.3789	519.46
32.3933	537.09
32.4078	486.23
32.4222	533.93
32.4366	529.27
32.4511	464.79
32.4655	491.72
32.4800	504.67
32.4944	493.76
32.5088	502.97
32.5233	534.80
32.5377	524.87
32.5522	517.45
32.5666	488.17
32.5810	524.80
32.5955	525.74
32.6099	509.64
32.6244	511.95
32.6388	483.27
32.6532	466.52
32.6677	510.10
32.6821	473.19
32.6966	492.20
32.7110	523.42
32.7254	489.52
32.7399	499.98
32.7543	519.32
32.7688	500.21
32.7832	528.68
32.7976	455.27
32.8121	481.25
32.8265	507.00
32.8410	464.10
32.8554	495.19
32.8698	526.17
32.8843	468.67
32.8987	544.64
32.9132	528.11
32.9276	484.17
32.9420	516.78
32.9565	492.21
32.9709	471.68
32.9854	530.92
32.9998	523.98
33.0142	500.85
33.0287	489.27
33.0431	508.90
33.0576	523.26
33.0720	513.18
33.0864	502.37
33.1009	512.83
33.1153	531.34
33.1298	497.73
33.1442	467.37
33.1586	473.25
33.1731	517.78
33.1875	517.91
33.2020	505.24
33.2164	527.76
33.2308	479.79
33.2453	510.13
33.2597	481.30
33.2742	513.21
33.2886	496.36
33.3030	480.64
33.3175	470.91
33.3319	521.24
33.3464	529.43
33.3608	495.07
33.3752	496.09
33.3897	507.03
33.4041	507.95
33.4186	509.13
33.4330	523.71
33.4474	485.42
33.4619	483.36
33.4763	511.36
33.4908	496.48
33.5052	467.91
33.5196	499.55
33.5341	506.11
33.5485	497.46
33.5630	518.81
33.5774	499.27
33.5918	477.71
33.6063	515.64
33.6207	483.60
33.6352	498.59
33.6496	535.61
33.6640	476.40
33.6785	501.65
33.6929	510.85
33.7074	507.12
33.7218	477.37
33.7362	487.27
33.7507	512.82
33.7651	497.55
33.7796	523.58
33.7940	529.54
33.8084	494.29
33.8229	487.17
33.8373	538.98
33.8518	501.52
33.8662	541.74
33.8806	496.52
33.8951	511.43
33.9095	483.52
33.9240	492.76
33.9384	526.58
33.9528	507.54
33.9673	491.41
33.9817	508.24
33.9962	526.50
34.0106	484.04
34.0250	479.27
34.0395	501.39
34.0539	487.36
34.0684	517.42
34.0828	489.25
34.0972	505.34
34.1117	499.75
34.1261	505.35
34.1406	511.72
34.1550	542.64
34.1694	514.52
34.1839	479.16
34.1983	492.93
34.2128	493.62
34.2272	496.82
34.2417	506.09
34.2561	471.35
34.2705	484.21
34.2850	506.64
34.2994	474.13
34.3139	508.72
34.3283	524.75
34.3427	523.45
34.3572	506.95
34.3716	518.79
34.3861	470.49
34.4005	504.89
34.4149	504.54
34.4294	510.25
34.4438	476.79
34.4583	509.68
34.4727	506.28
34.4871	507.88
34.5016	456.18
34.5160	457.84
34.5305	495.79
34.5449	500.81
34.5593	519.12
34.5738	467.11
34.5882	482.27
34.6027	486.11
34.6171	524.79
34.6315	531.54
34.6460	530.22
34.6604	516.24
34.6749	488.30
34.6893	507.33
34.7037	525.40
34.7182	502.79
34.7326	532.71
34.7471	525.08
34.7615	512.48
34.7759	506.97
34.7904	512.84
34.8048	518.35
34.8193	508.02
34.8337	502.61
34.8481	509.42
34.8626	503.10
34.8770	494.06
34.8915	498.06
34.9059	512.84
34.9203	515.94
34.9348	531.42
34.9492	530.42
34.9637	523.34
34.9781	517.92
34.9925	504.10
35.0070	499.77
35.0214	515.04
35.0359	514.19
35.0503	500.47
35.0647	495.83
35.0792	486.22
35.0936	502.20
35.1081	501.50
35.1225	517.13
35.1369	503.39
35.1514	523.49
35.1658	527.57
35.1803	542.18
35.1947	480.04
35.2091	477.15
35.2236	487.11
35.2380	488.18
35.2525	546.13
35.2669	508.08
35.2813	509.54
35.2958	508.04
35.3102	527.97
35.3247	540.15
35.3391	501.68
35.3535	473.99
35.3680	495.08
35.3824	512.63
35.3969	528.19
35.4113	528.38
35.4257	515.43
35.4402	521.50
35.4546	525.70
35.4691	534.43
35.4835	501.28
35.4979	531.75
35.5124	517.18
35.5268	531.01
35.5413	550.34
35.5557	545.01
35.5701	560.28
35.5846	517.00
35.5990	509.97
35.6135	507.12
35.6279	486.03
35.6423	529.18
35.6568	544.71
35.6712	524.94
35.6857	611.10
35.7001	687.52
35.7145	743.40
35.7290	712.94
35.7434	676.99
35.7579	621.97
35.7723	637.76
35.7867	700.83
35.8012	754.05
35.8156	736.89
35.8301	728.29
35.8445	713.60
35.8589	805.89
35.8734	913.25
35.8878	993.95
35.9023	1116.89
35.9167	1187.01
35.9311	1340.21
35.9456	1590.99
35.9600	1949.22
35.9745	2005.97
35.9889	2282.59
36.0033	2712.68
36.0178	3041.93
36.0322	3147.15
36.0467	2749.82
36.0611	2219.68
36.0755	1938.34
36.0900	2276.19
36.1044	2340.58
36.1189	1801.31
36.1333	1363.66
36.1477	1055.05
36.1622	1068.25
36.1766	987.38
36.1911	871.44
36.2055	784.17
36.2199	782.21
36.2344	763.07
36.2488	643.99
36.2633	565.02
36.2777	558.14
36.2921	552.39
36.3066	553.16
36.3210	547.10
36.3355	526.75
36.3499	538.47
36.3643	500.46
36.3788	531.12
36.3932	571.96
36.4077	569.57
36.4221	549.18
36.4365	508.58
36.4510	485.41
36.4654	540.47
36.4799	555.50
36.4943	549.02
36.5087	500.44
36.5232	525.49
36.5376	499.41
36.5521	553.68
36.5665	548.34
36.5809	549.62
36.5954	559.00
36.6098	532.17
36.6243	522.86
36.6387	512.74
36.6531	503.86
36.6676	488.32
36.6820	530.34
36.6965	501.85
36.7109	530.37
36.7253	520.20
36.7398	522.36
36.7542	494.79
36.7687	553.21
36.7831	540.84
36.7975	546.31
36.8120	547.21
36.8264	525.44
36.8409	559.18
36.8553	598.84
36.8697	575.80
36.8842	577.14
36.8986	603.26
36.9131	583.03
36.9275	570.55
36.9419	632.48
36.9564	557.70
36.9708	552.06
36.9853	591.26
36.9997	553.36
37.0141	506.13
37.0286	543.62
37.0430	519.26
37.0575	513.91
37.0719	576.60
37.0863	569.68
37.1008	510.24
37.1152	454.27
37.1297	529.68
37.1441	481.12
37.1585	487.51
37.1730	487.40
37.1874	511.42
37.2019	508.52
37.2163	526.88
37.2307	517.98
37.2452	531.46
37.2596	521.97
37.2741	494.33
37.2885	520.24
37.3029	537.06
37.3174	537.42
37.3318	528.38
37.3463	516.94
37.3607	497.71
37.3751	506.52
37.3896	497.41
37.4040	507.77
37.4185	481.83
37.4329	473.29
37.4473	489.11
37.4618	477.16
37.4762	512.61
37.4907	491.15
37.5051	486.44
37.5195	510.47
37.5340	517.08
37.5484	498.95
37.5629	488.32
37.5773	467.15
37.5917	496.12
37.6062	516.19
37.6206	527.85
37.6351	514.52
37.6495	536.20
37.6639	535.63
37.6784	504.56
37.6928	489.61
37.7073	528.24
37.7217	522.85
37.7361	506.33
37.7506	533.58
37.7650	523.50
37.7795	501.57
37.7939	541.89
37.8083	506.71
37.8228	511.94
37.8372	509.77
37.8517	504.84
37.8661	499.66
37.8805	516.93
37.8950	498.21
37.9094	512.00
37.9239	503.73
37.9383	541.43
37.9528	500.09
37.9672	490.34
37.9816	468.01
37.9961	504.02
38.0105	494.98
38.0250	521.85
38.0394	486.34
38.0538	542.10
38.0683	505.05
38.0827	462.76
38.0972	476.43
38.1116	539.59
38.1260	535.01
38.1405	508.40
38.1549	490.22
38.1694	518.94
38.1838	504.92
38.1982	514.12
38.2127	502.66
38.2271	472.09
38.2416	508.52
38.2560	514.60
38.2704	516.75
38.2849	516.71
38.2993	530.41
38.3138	540.11
38.3282	500.48
38.3426	517.37
38.3571	527.62
38.3715	549.77
38.3860	509.88
38.4004	511.48
38.4148	543.96
38.4293	602.30
38.4437	592.71
38.4582	635.07
38.4726	640.77
38.4870	672.24
38.5015	714.46
38.5159	788.57
38.5304	843.64
38.5448	813.87
38.5592	853.70
38.5737	783.02
38.5881	711.00
38.6026	741.17
38.6170	705.09
38.6314	656.66
38.6459	686.23
38.6603	680.59
38.6748	647.01
38.6892	590.69
38.7036	570.27
38.7181	534.84
38.7325	528.66
38.7470	496.93
38.7614	486.09
38.7758	477.45
38.7903	499.89
38.8047	530.59
38.8192	511.29
38.8336	496.87
38.8480	483.83
38.8625	494.04
38.8769	517.12
38.8914	497.66
38.9058	532.10
38.9202	492.65
38.9347	473.91
38.9491	475.75
38.9636	498.11
38.9780	487.65
38.9924	487.24
39.0069	491.69
39.0213	513.17
39.0358	530.67
39.0502	522.46
39.0646	485.73
39.0791	499.63
39.0935	521.07
39.1080	526.83
39.1224	499.48
39.1368	491.55
39.1513	480.50
39.1657	512.91
39.1802	460.04
39.1946	460.57
39.2090	493.18
39.2235	514.75
39.2379	468.20
39.2524	490.34
39.2668	518.17
39.2812	529.96
39.2957	502.47
39.3101	521.00
39.3246	507.94
39.3390	504.86
39.3534	494.75
39.3679	474.39
39.3823	476.21
39.3968	471.37
39.4112	490.29
39.4256	496.35
39.4401	495.62
39.4545	480.39
39.4690	471.29
39.4834	485.93
39.4978	502.04
39.5123	454.27
39.5267	478.15
39.5412	497.17
39.5556	529.97
39.5700	477.23
39.5845	498.74
39.5989	503.90
39.6134	517.23
39.6278	508.29
39.6422	495.96
39.6567	484.81
39.6711	483.44
39.6856	484.93
39.7000	524.90
39.7144	562.79
39.7289	494.53
39.7433	466.34
39.7578	444.18
39.7722	474.87
39.7866	504.97
39.8011	500.16
39.8155	513.20
39.8300	491.24
39.8444	469.87
39.8588	480.00
39.8733	491.77
39.8877	481.51
39.9022	530.33
39.9166	499.38
39.9310	495.82
39.9455	504.73
39.9599	479.70
39.9744	474.50
39.9888	453.53
40.0032	469.43
40.0177	488.23
40.0321	501.95
40.0466	476.96
40.0610	515.75
40.0754	497.68
40.0899	530.68
40.1043	513.66
40.1188	480.47
40.1332	516.99
40.1476	490.49
40.1621	489.43
40.1765	491.65
40.1910	480.59
40.2054	491.68
40.2198	525.66
40.2343	495.64
40.2487	483.31
40.2632	502.81
40.2776	505.97
40.2920	524.34
40.3065	504.06
40.3209	538.46
40.3354	492.68
40.3498	492.79
40.3642	470.12
40.3787	496.14
40.3931	450.77
40.4076	493.09
40.4220	519.80
40.4364	490.77
40.4509	478.19
40.4653	504.79
40.4798	483.88
40.4942	498.43
40.5086	436.21
40.5231	486.81
40.5375	500.69
40.5520	527.72
40.5664	487.66
40.5808	495.82
40.5953	510.45
40.6097	495.43
40.6242	516.41
40.6386	532.06
40.6530	496.83
40.6675	491.66
40.6819	500.67
40.6964	517.22
40.7108	501.18
40.7252	478.12
40.7397	473.60
40.7541	497.81
40.7686	474.94
40.7830	484.05
40.7974	481.92
40.8119	485.31
40.8263	526.15
40.8408	499.87
40.8552	492.21
40.8696	523.02
40.8841	466.38
40.8985	553.68
40.9130	514.64
40.9274	483.84
40.9418	481.47
40.9563	457.27
40.9707	497.19
40.9852	472.44
40.9996	504.17
41.0140	490.00
41.0285	491.51
41.0429	518.40
41.0574	511.96
41.0718	445.53
41.0862	508.43
41.1007	538.04
41.1151	476.16
41.1296	472.08
41.1440	443.30
41.1584	471.51
41.1729	492.47
41.1873	519.32
41.2018	531.50
41.2162	539.38
41.2306	520.06
41.2451	499.85
41.2595	445.74
41.2740	505.08
41.2884	495.58
41.3028	486.27
41.3173	505.06
41.3317	498.46
41.3462	494.82
41.3606	517.82
41.3750	499.51
41.3895	487.15
41.4039	500.13
41.4184	500.00
41.4328	511.06
41.4472	488.93
41.4617	488.68
41.4761	512.08
41.4906	482.50
41.5050	458.80
41.5194	490.05
41.5339	506.58
41.5483	512.91
41.5628	492.66
41.5772	482.54
41.5916	461.94
41.6061	498.05
41.6205	491.15
41.6350	508.56
41.6494	518.39
41.6639	497.14
41.6783	476.78
41.6927	481.24
41.7072	528.11
41.7216	516.77
41.7361	509.05
41.7505	516.69
41.7649	509.06
41.7794	492.29
41.7938	503.22
41.8083	521.21
41.8227	501.78
41.8371	496.95
41.8516	500.92
41.8660	533.12
41.8805	540.04
41.8949	521.66
41.9093	518.94
41.9238	544.63
41.9382	567.63
41.9527	546.90
41.9671	574.17
41.9815	561.53
41.9960	587.18
42.0104	545.72
42.0249	584.43
42.0393	566.96
42.0537	554.68
42.0682	577.70
42.0826	574.98
42.0971	614.52
42.1115	588.38
42.1259	606.19
42.1404	603.94
42.1548	610.38
42.1693	644.03
42.1837	657.25
42.1981	725.66
42.2126	807.97
42.2270	941.51
42.2415	1088.36
42.2559	1169.77
42.2703	1356.75
42.2848	1507.98
42.2992	1628.55
42.3137	1657.97
42.3281	1627.14
42.3425	1564.68
42.3570	1466.66
42.3714	1442.23
42.3859	1358.91
42.4003	1285.10
42.4147	1311.73
42.4292	1228.91
42.4436	1116.80
42.4581	1032.76
42.4725	941.56
42.4869	847.66
42.5014	757.77
42.5158	673.27
42.5303	648.80
42.5447	617.63
42.5591	601.59
42.5736	613.80
42.5880	586.58
42.6025	562.59
42.6169	558.90
42.6313	556.58
42.6458	557.28
42.6602	568.45
42.6747	546.93
42.6891	510.01
42.7035	542.45
42.7180	528.09
42.7324	525.79
42.7469	541.97
42.7613	529.02
42.7757	532.00
42.7902	510.81
42.8046	508.78
42.8191	523.70
42.8335	516.73
42.8479	533.17
42.8624	532.70
42.8768	516.37
42.8913	495.00
42.9057	538.72
42.9201	530.45
42.9346	490.22
42.9490	490.61
42.9635	497.21
42.9779	523.24
42.9923	534.44
43.0068	523.57
43.0212	524.59
43.0357	549.02
43.0501	556.59
43.0645	548.21
43.0790	510.36
43.0934	488.09
43.1079	501.77
43.1223	499.34
43.1367	517.60
43.1512	512.09
43.1656	546.10
43.1801	535.20
43.1945	540.01
43.2089	529.12
43.2234	540.31
43.2378	546.62
43.2523	548.77
43.2667	540.96
43.2811	521.12
43.2956	517.54
43.3100	534.69
43.3245	532.17
43.3389	515.93
43.3533	525.31
43.3678	529.25
43.3822	518.85
43.3967	522.58
43.4111	519.81
43.4255	543.88
43.4400	553.54
43.4544	528.06
43.4689	526.21
43.4833	545.99
43.4977	500.95
43.5122	511.40
43.5266	496.48
43.5411	490.00
43.5555	499.84
43.5699	529.24
43.5844	531.34
43.5988	530.37
43.6133	556.47
43.6277	564.49
43.6421	524.43
43.6566	511.80
43.6710	545.77
43.6855	564.46
43.6999	600.44
43.7143	604.11
43.7288	634.28
43.7432	667.81
43.7577	663.20
43.7721	647.69
43.7865	621.73
43.8010	615.95
43.8154	621.60
43.8299	618.38
43.8443	612.64
43.8587	598.50
43.8732	629.89
43.8876	603.84
43.9021	555.48
43.9165	584.61
43.9309	569.59
43.9454	538.38
43.9598	515.92
43.9743	530.26
43.9887	524.96
44.0031	504.89
44.0176	488.52
44.0320	542.21
44.0465	488.63
44.0609	497.44
44.0753	510.61
44.0898	526.10
44.1042	468.58
44.1187	468.02
44.1331	490.11
44.1475	471.19
44.1620	491.54
44.1764	526.32
44.1909	496.49
44.2053	526.90
44.2197	526.14
44.2342	493.68
44.2486	514.17
44.2631	530.82
44.2775	511.83
44.2919	506.74
44.3064	558.39
44.3208	574.05
44.3353	530.94
44.3497	504.58
44.3641	517.14
44.3786	520.92
44.3930	519.76
44.4075	563.05
44.4219	588.76
44.4363	598.46
44.4508	574.77
44.4652	573.81
44.4797	586.53
44.4941	604.60
44.5085	589.01
44.5230	563.26
44.5374	573.27
44.5519	567.58
44.5663	564.27
44.5807	568.17
44.5952	573.46
44.6096	592.54
44.6241	571.25
44.6385	572.82
44.6529	539.29
44.6674	565.33
44.6818	570.10
44.6963	611.92
44.7107	642.98
44.7251	677.66
44.7396	747.43
44.7540	787.42
44.7685	767.35
44.7829	903.05
44.7973	853.09
44.8118	856.06
44.8262	786.09
44.8407	769.45
44.8551	759.19
44.8695	753.77
44.8840	724.35
44.8984	698.40
44.9129	704.95
44.9273	687.70
44.9417	695.07
44.9562	653.74
44.9706	600.15
44.9851	585.37
44.9995	573.96
45.0139	556.70
45.0284	536.65
45.0428	497.99
45.0573	551.64
45.0717	511.54
45.0861	523.70
45.1006	571.99
45.1150	513.72
45.1295	527.95
45.1439	499.32
45.1583	511.75
45.1728	553.18
45.1872	529.74
45.2017	508.96
45.2161	481.53
45.2305	496.14
45.2450	532.45
45.2594	510.74
45.2739	504.69
45.2883	490.32
45.3028	494.27
45.3172	518.23
45.3316	519.09
45.3461	501.23
45.3605	494.52
45.3750	478.36
45.3894	501.91
45.4038	505.31
45.4183	498.97
45.4327	501.49
45.4472	492.43
45.4616	493.38
45.4760	518.29
45.4905	498.01
45.5049	523.52
45.5194	533.82
45.5338	508.73
45.5482	514.63
45.5627	532.15
45.5771	488.97
45.5916	528.13
45.6060	525.40
45.6204	525.01
45.6349	547.11
45.6493	535.18
45.6638	499.32
45.6782	460.53
45.6926	481.81
45.7071	528.21
45.7215	504.62
45.7360	469.35
45.7504	517.74
45.7648	531.65
45.7793	501.50
45.7937	528.95
45.8082	524.72
45.8226	509.17
45.8370	518.25
45.8515	506.38
45.8659	520.26
45.8804	501.35
45.8948	511.70
45.9092	461.36
45.9237	483.27
45.9381	500.10
45.9526	480.17
45.9670	507.14
45.9814	523.28
45.9959	497.94
46.0103	529.77
46.0248	519.68
46.0392	512.56
46.0536	514.31
46.0681	502.19
46.0825	504.87
46.0970	518.30
46.1114	494.95
46.1258	543.46
46.1403	497.59
46.1547	478.86
46.1692	505.84
46.1836	512.54
46.1980	472.48
46.2125	472.61
46.2269	477.03
46.2414	487.47
46.2558	478.60
46.2702	498.53
46.2847	514.68
46.2991	491.64
46.3136	492.97
46.3280	504.30
46.3424	491.08
46.3569	557.82
46.3713	506.84
46.3858	502.49
46.4002	522.07
46.4146	494.44
46.4291	501.15
46.4435	461.21
46.4580	474.96
46.4724	487.67
46.4868	484.63
46.5013	493.97
46.5157	504.03
46.5302	504.13
46.5446	503.63
46.5590	535.62
46.5735	515.74
46.5879	493.71
46.6024	495.14
46.6168	481.84
46.6312	508.82
46.6457	510.85
46.6601	543.70
46.6746	508.52
46.6890	469.33
46.7034	497.14
46.7179	491.77
46.7323	499.60
46.7468	497.29
46.7612	468.03
46.7756	486.15
46.7901	528.74
46.8045	518.22
46.8190	532.70
46.8334	497.68
46.8478	478.18
46.8623	488.33
46.8767	500.07
46.8912	494.23
46.9056	500.26
46.9200	484.46
46.9345	499.28
46.9489	510.12
46.9634	510.54
46.9778	534.24
46.9922	534.53
47.0067	533.75
47.0211	512.35
47.0356	506.35
47.0500	484.89
47.0644	481.45
47.0789	499.95
47.0933	517.71
47.1078	514.18
47.1222	514.33
47.1366	513.79
47.1511	477.48
47.1655	541.15
47.1800	524.44
47.1944	504.81
47.2088	501.87
47.2233	478.34
47.2377	488.30
47.2522	527.32
47.2666	526.79
47.2810	520.40
47.2955	445.49
47.3099	527.57
47.3244	544.78
47.3388	537.97
47.3532	494.00
47.3677	518.11
47.3821	498.56
47.3966	500.87
47.4110	488.49
47.4254	507.83
47.4399	484.13
47.4543	487.86
47.4688	486.14
47.4832	521.27
47.4976	532.25
47.5121	493.22
47.5265	522.79
47.5410	505.64
47.5554	504.11
47.5698	502.94
47.5843	495.94
47.5987	500.47
47.6132	524.66
47.6276	544.30
47.6420	523.31
47.6565	523.19
47.6709	495.24
47.6854	486.30
47.6998	484.86
47.7142	510.70
47.7287	501.85
47.7431	481.57
47.7576	489.96
47.7720	517.53
47.7864	485.39
47.8009	482.35
47.8153	475.46
47.8298	469.70
47.8442	489.17
47.8586	469.84
47.8731	479.25
47.8875	502.60
47.9020	458.61
47.9164	504.29
47.9308	508.31
47.9453	479.22
47.9597	503.99
47.9742	529.09
47.9886	508.15
48.0030	486.47
48.0175	514.28
48.0319	527.97
48.0464	496.86
48.0608	535.07
48.0752	504.60
48.0897	502.64
48.1041	472.21
48.1186	493.61
48.1330	507.17
48.1474	481.83
48.1619	486.98
48.1763	506.34
48.1908	496.41
48.2052	494.28
48.2196	531.91
48.2341	494.58
48.2485	532.32
48.2630	509.33
48.2774	509.10
48.2918	527.37
48.3063	507.25
48.3207	505.60
48.3352	502.42
48.3496	497.89
48.3640	453.25
48.3785	481.74
48.3929	489.18
48.4074	478.16
48.4218	513.66
48.4362	514.85
48.4507	490.88
48.4651	522.55
48.4796	484.31
48.4940	487.00
48.5084	481.92
48.5229	478.76
48.5373	495.37
48.5518	483.36
48.5662	517.95
48.5806	506.11
48.5951	496.51
48.6095	538.91
48.6240	518.65
48.6384	516.04
48.6528	508.24
48.6673	516.59
48.6817	519.52
48.6962	502.82
48.7106	524.08
48.7250	530.75
48.7395	547.19
48.7539	537.90
48.7684	527.73
48.7828	541.12
48.7972	557.30
48.8117	540.51
48.8261	544.20
48.8406	529.25
48.8550	567.99
48.8694	537.37
48.8839	566.67
48.8983	564.97
48.9128	551.11
48.9272	528.71
48.9416	542.09
48.9561	582.54
48.9705	571.78
48.9850	558.10
48.9994	602.29
49.0139	611.60
49.0283	570.17
49.0427	571.47
49.0572	627.28
49.0716	662.46
49.0861	662.36
49.1005	702.56
49.1149	721.00
49.1294	746.99
49.1438	779.29
49.1583	809.11
49.1727	886.14
49.1871	946.77
49.2016	953.42
49.2160	1009.71
49.2305	1091.51
49.2449	1223.15
49.2593	1285.41
49.2738	1349.26
49.2882	1490.55
49.3027	1614.12
49.3171	1668.40
49.3315	1761.70
49.3460	1799.06
49.3604	1867.32
49.3749	1841.57
49.3893	1805.18
49.4037	1814.10
49.4182	1781.13
49.4326	1805.17
49.4471	1655.57
49.4615	1626.43
49.4759	1634.95
49.4904	1484.68
49.5048	1421.48
49.5193	1318.95
49.5337	1291.29
49.5481	1194.99
49.5626	1081.26
49.5770	1064.83
49.5915	1036.04
49.6059	961.98
49.6203	872.90
49.6348	862.97
49.6492	814.17
49.6637	728.50
49.6781	723.26
49.6925	655.71
49.7070	668.10
49.7214	653.77
49.7359	623.29
49.7503	633.55
49.7647	585.50
49.7792	588.00
49.7936	615.64
49.8081	585.13
49.8225	546.40
49.8369	563.84
49.8514	555.20
49.8658	531.41
49.8803	566.95
49.8947	553.86
49.9091	564.14
49.9236	529.30
49.9380	555.77
49.9525	542.24
49.9669	528.74
49.9813	552.26
49.9958	539.38
50.0102	548.89
50.0247	518.80
50.0391	527.65
50.0535	557.06
50.0680	557.56
50.0824	520.99
50.0969	554.41
50.1113	533.39
50.1257	539.26
50.1402	517.64
50.1546	506.35
50.1691	531.91
50.1835	534.01
50.1979	534.00
50.2124	541.08
50.2268	537.36
50.2413	520.87
50.2557	517.79
50.2701	519.13
50.2846	509.17
50.2990	494.75
50.3135	486.64
50.3279	506.62
50.3423	508.50
50.3568	535.06
50.3712	510.07
50.3857	482.98
50.4001	500.49
50.4145	518.05
50.4290	524.16
50.4434	523.39
50.4579	523.65
50.4723	529.86
50.4867	572.30
50.5012	525.28
50.5156	505.17
50.5301	499.11
50.5445	499.03
50.5589	510.30
50.5734	511.37
50.5878	516.65
50.6023	525.08
50.6167	525.76
50.6311	504.94
50.6456	510.85
50.6600	501.99
50.6745	499.18
50.6889	463.75
50.7033	512.79
50.7178	534.06
50.7322	521.79
50.7467	507.53
50.7611	499.42
50.7755	501.56
50.7900	518.27
50.8044	497.27
50.8189	505.54
50.8333	523.38
50.8477	494.54
50.8622	494.04
50.8766	479.73
50.8911	473.91
50.9055	508.33
50.9199	509.76
50.9344	527.85
50.9488	514.67
50.9633	533.11
50.9777	517.26
50.9921	482.93
51.0066	479.76
51.0210	502.51
51.0355	522.78
51.0499	503.80
51.0643	500.19
51.0788	487.01
51.0932	521.45
51.1077	498.53
51.1221	527.42
51.1365	494.92
51.1510	495.19
51.1654	508.57
51.1799	491.44
51.1943	489.44
51.2087	506.46
51.2232	538.57
51.2376	514.80
51.2521	513.04
51.2665	535.04
51.2809	507.77
51.2954	495.42
51.3098	491.81
51.3243	489.71
51.3387	497.80
51.3531	488.09
51.3676	492.57
51.3820	508.67
51.3965	505.67
51.4109	496.57
51.4253	517.36
51.4398	480.78
51.4542	498.86
51.4687	516.80
51.4831	498.87
51.4975	531.89
51.5120	549.18
51.5264	518.37
51.5409	509.92
51.5553	532.32
51.5697	487.79
51.5842	489.72
51.5986	496.01
51.6131	486.73
51.6275	512.24
51.6419	515.82
51.6564	493.11
51.6708	494.95
51.6853	497.56
51.6997	521.49
51.7141	511.67
51.7286	493.28
51.7430	491.08
51.7575	474.43
51.7719	506.30
51.7863	514.53
51.8008	523.77
51.8152	536.48
51.8297	513.05
51.8441	515.25
51.8585	499.31
51.8730	535.25
51.8874	514.03
51.9019	526.44
51.9163	539.57
51.9307	496.09
51.9452	506.74
51.9596	469.48
51.9741	489.91
51.9885	486.42
52.0029	493.10
52.0174	489.95
52.0318	534.04
52.0463	517.51
52.0607	505.26
52.0751	513.65
52.0896	535.59
52.1040	525.96
52.1185	527.21
52.1329	511.55
52.1473	504.90
52.1618	528.78
52.1762	513.33
52.1907	501.78
52.2051	487.61
52.2195	526.10
52.2340	534.21
52.2484	513.98
52.2629	483.00
52.2773	497.30
52.2917	516.44
52.3062	531.91
52.3206	510.12
52.3351	495.53
52.3495	548.07
52.3639	503.08
52.3784	470.64
52.3928	487.67
52.4073	484.65
52.4217	514.35
52.4361	524.08
52.4506	501.21
52.4650	517.09
52.4795	502.55
52.4939	492.15
52.5083	541.51
52.5228	520.38
52.5372	532.38
52.5517	540.73
52.5661	500.68
52.5805	494.57
52.5950	489.27
52.6094	494.41
52.6239	506.16
52.6383	503.09
52.6527	499.27
52.6672	488.43
52.6816	487.13
52.6961	517.59
52.7105	459.37
52.7250	489.85
52.7394	474.04
52.7538	483.33
52.7683	519.80
52.7827	527.44
52.7972	532.44
52.8116	532.38
52.8260	513.21
52.8405	518.94
52.8549	500.51
52.8694	551.91
52.8838	494.03
52.8982	551.93
52.9127	509.18
52.9271	496.27
52.9416	492.24
52.9560	532.29
52.9704	519.69
52.9849	531.13
52.9993	535.39
53.0138	535.00
53.0282	497.60
53.0426	504.30
53.0571	519.71
53.0715	535.80
53.0860	527.52
53.1004	546.30
53.1148	523.89
53.1293	527.05
53.1437	503.98
53.1582	475.97
53.1726	532.53
53.1870	534.70
53.2015	478.49
53.2159	516.12
53.2304	506.66
53.2448	538.06
53.2592	463.23
53.2737	496.05
53.2881	524.67
53.3026	524.24
53.3170	522.07
53.3314	535.76
53.3459	479.70
53.3603	508.57
53.3748	502.85
53.3892	499.95
53.4036	477.23
53.4181	511.20
53.4325	541.87
53.4470	515.03
53.4614	535.52
53.4758	559.81
53.4903	525.97
53.5047	536.21
53.5192	524.22
53.5336	523.46
53.5480	485.92
53.5625	501.95
53.5769	499.52
53.5914	528.02
53.6058	511.17
53.6202	498.90
53.6347	522.77
53.6491	463.11
53.6636	510.01
53.6780	504.84
53.6924	534.25
53.7069	530.68
53.7213	541.61
53.7358	519.56
53.7502	489.33
53.7646	498.10
53.7791	527.05
53.7935	497.91
53.8080	517.81
53.8224	507.58
53.8368	518.23
53.8513	500.72
53.8657	520.24
53.8802	516.42
53.8946	503.11
53.9090	499.45
53.9235	506.76
53.9379	537.36
53.9524	497.24
53.9668	489.62
53.9812	515.67
53.9957	526.68
54.0101	501.45
54.0246	500.74
54.0390	513.40
54.0534	525.19
54.0679	539.11
54.0823	517.36
54.0968	512.16
54.1112	530.02
54.1256	535.09
54.1401	499.41
54.1545	528.39
54.1690	543.09
54.1834	548.80
54.1978	572.58
54.2123	592.79
54.2267	581.15
54.2412	600.57
54.2556	626.64
54.2700	647.27
54.2845	620.50
54.2989	611.51
54.3134	630.38
54.3278	621.38
54.3422	614.88
54.3567	610.80
54.3711	588.85
54.3856	607.31
54.4000	606.47
54.4144	575.38
54.4289	594.75
54.4433	610.11
54.4578	528.67
54.4722	539.00
54.4866	548.57
54.5011	544.33
54.5155	553.04
54.5300	541.90
54.5444	534.17
54.5588	508.45
54.5733	511.36
54.5877	526.02
54.6022	554.67
54.6166	549.65
54.6310	526.91
54.6455	503.89
54.6599	536.43
54.6744	503.79
54.6888	485.86
54.7032	511.60
54.7177	525.90
54.7321	523.70
54.7466	503.68
54.7610	504.88
54.7754	505.31
54.7899	501.01
54.8043	495.15
54.8188	530.19
54.8332	538.66
54.8476	531.50
54.8621	535.81
54.8765	541.74
54.8910	531.33
54.9054	547.31
54.9198	502.07
54.9343	535.00
54.9487	517.58
54.9632	479.67
54.9776	518.93
54.9920	509.34
55.0065	512.22
55.0209	521.96
55.0354	493.31
55.0498	511.13
55.0642	526.26
55.0787	525.52
55.0931	533.64
55.1076	521.48
55.1220	544.21
55.1364	521.84
55.1509	499.57
55.1653	516.71
55.1798	521.98
55.1942	526.24
55.2086	518.07
55.2231	494.16
55.2375	500.94
55.2520	500.99
55.2664	517.28
55.2808	509.84
55.2953	493.28
55.3097	508.24
55.3242	518.36
55.3386	557.88
55.3530	534.30
55.3675	493.73
55.3819	523.51
55.3964	519.25
55.4108	493.08
55.4252	536.67
55.4397	517.95
55.4541	458.96
55.4686	534.15
55.4830	554.02
55.4974	520.34
55.5119	498.10
55.5263	519.95
55.5408	517.45
55.5552	536.20
55.5696	506.97
55.5841	514.99
55.5985	525.25
55.6130	488.11
55.6274	485.89
55.6418	500.94
55.6563	508.36
55.6707	526.14
55.6852	528.48
55.6996	529.42
55.7140	540.68
55.7285	507.41
55.7429	506.97
55.7574	528.85
55.7718	555.49
55.7862	519.55
55.8007	492.55
55.8151	518.31
55.8296	552.20
55.8440	516.73
55.8584	539.59
55.8729	559.96
55.8873	548.87
55.9018	516.28
55.9162	552.60
55.9306	520.72
55.9451	517.13
55.9595	514.41
55.9740	528.50
55.9884	534.67
56.0028	527.42
56.0173	470.37
56.0317	504.56
56.0462	517.36
56.0606	496.66
56.0750	539.53
56.0895	548.95
56.1039	509.10
56.1184	523.81
56.1328	517.69
56.1472	490.62
56.1617	493.39
56.1761	531.74
56.1906	508.76
56.2050	512.94
56.2194	522.16
56.2339	519.09
56.2483	534.98
56.2628	497.71
56.2772	557.80
56.2916	537.85
56.3061	517.77
56.3205	521.50
56.3350	504.74
56.3494	492.06
56.3639	502.47
56.3783	479.12
56.3927	497.55
56.4072	490.61
56.4216	493.98
56.4361	512.89
56.4505	498.17
56.4649	522.09
56.4794	530.76
56.4938	545.30
56.5083	455.53
56.5227	464.64
56.5371	505.42
56.5516	515.74
56.5660	503.50
56.5805	513.99
56.5949	532.80
56.6093	502.25
56.6238	505.71
56.6382	528.35
56.6527	493.06
56.6671	523.41
56.6815	531.30
56.6960	512.57
56.7104	539.93
56.7249	483.19
56.7393	502.69
56.7537	509.86
56.7682	543.11
56.7826	535.46
56.7971	489.53
56.8115	528.08
56.8259	527.77
56.8404	509.54
56.8548	542.47
56.8693	543.10
56.8837	499.00
56.8981	572.98
56.9126	532.24
56.9270	514.82
56.9415	549.46
56.9559	511.80
56.9703	515.13
56.9848	532.29
56.9992	491.11
57.0137	489.35
57.0281	502.85
57.0425	503.01
57.0570	511.74
57.0714	539.23
57.0859	549.90
57.1003	462.09
57.1147	517.04
57.1292	590.65
57.1436	521.39
57.1581	516.26
57.1725	549.26
57.1869	503.18
57.2014	524.43
57.2158	536.15
57.2303	505.92
57.2447	505.37
57.2591	523.41
57.2736	505.42
57.2880	500.83
57.3025	507.36
57.3169	518.21
57.3313	511.77
57.3458	499.57
57.3602	507.25
57.3747	547.70
57.3891	499.46
57.4035	523.79
57.4180	516.89
57.4324	519.03
57.4469	499.13
57.4613	518.67
57.4757	532.83
57.4902	536.12
57.5046	518.52
57.5191	532.51
57.5335	521.57
57.5479	517.75
57.5624	527.78
57.5768	540.31
57.5913	556.12
57.6057	556.25
57.6201	512.00
57.6346	528.79
57.6490	518.31
57.6635	541.31
57.6779	520.76
57.6923	550.06
57.7068	606.36
57.7212	563.49
57.7357	533.80
57.7501	558.14
57.7645	601.87
57.7790	601.38
57.7934	637.78
57.8079	640.58
57.8223	695.91
57.8367	700.66
57.8512	700.97
57.8656	796.61
57.8801	752.65
57.8945	811.21
57.9089	741.62
57.9234	699.06
57.9378	698.74
57.9523	641.81
57.9667	640.92
57.9811	617.06
57.9956	658.61
58.0100	688.24
58.0245	686.74
58.0389	673.07
58.0533	667.80
58.0678	651.84
58.0822	614.74
58.0967	605.32
58.1111	563.40
58.1255	577.90
58.1400	561.37
58.1544	582.11
58.1689	572.72
58.1833	563.43
58.1977	558.22
58.2122	592.38
58.2266	541.43
58.2411	543.44
58.2555	555.24
58.2699	538.15
58.2844	564.95
58.2988	551.46
58.3133	536.61
58.3277	530.00
58.3421	564.66
58.3566	543.54
58.3710	546.37
58.3855	510.88
58.3999	527.21
58.4143	551.59
58.4288	560.96
58.4432	494.63
58.4577	500.20
58.4721	536.49
58.4865	510.34
58.5010	539.35
58.5154	544.73
58.5299	510.80
58.5443	515.98
58.5587	507.79
58.5732	499.80
58.5876	534.56
58.6021	514.31
58.6165	570.72
58.6309	583.20
58.6454	540.46
58.6598	545.92
58.6743	513.49
58.6887	526.49
58.7031	552.71
58.7176	536.40
58.7320	530.66
58.7465	540.79
58.7609	528.60
58.7753	511.26
58.7898	511.67
58.8042	531.34
58.8187	523.96
58.8331	508.76
58.8475	487.61
58.8620	538.56
58.8764	538.45
58.8909	527.36
58.9053	530.18
58.9197	497.68
58.9342	505.87
58.9486	533.22
58.9631	540.99
58.9775	550.44
58.9919	516.81
59.0064	495.79
59.0208	513.47
59.0353	519.55
59.0497	520.79
59.0641	524.45
59.0786	499.56
59.0930	541.14
59.1075	535.29
59.1219	531.00
59.1363	505.14
59.1508	485.51
59.1652	552.18
59.1797	556.20
59.1941	533.36
59.2085	529.99
59.2230	549.03
59.2374	545.65
59.2519	522.00
59.2663	549.70
59.2807	531.22
59.2952	547.39
59.3096	568.17
59.3241	537.92
59.3385	544.94
59.3529	574.01
59.3674	565.01
59.3818	534.92
59.3963	550.61
59.4107	542.54
59.4251	539.35
59.4396	534.09
59.4540	543.44
59.4685	574.92
59.4829	581.49
59.4973	558.02
59.5118	556.50
59.5262	578.82
59.5407	541.68
59.5551	531.21
59.5695	546.74
59.5840	545.46
59.5984	566.16
59.6129	536.08
59.6273	547.81
59.6417	535.99
59.6562	510.03
59.6706	523.59
59.6851	506.27
59.6995	513.12
59.7139	526.84
59.7284	507.56
59.7428	554.42
59.7573	538.45
59.7717	553.05
59.7861	549.21
59.8006	548.90
59.8150	540.97
59.8295	540.74
59.8439	516.43
59.8583	557.93
59.8728	535.28
59.8872	532.00
59.9017	539.43
59.9161	499.27
59.9305	538.21
59.9450	551.49
59.9594	526.80
59.9739	520.08
59.9883	577.41
60.0027	527.66
60.0172	549.12
60.0316	525.60
60.0461	516.37
60.0605	518.55
60.0750	506.70
60.0894	537.85
60.1038	505.67
60.1183	492.98
60.1327	561.72
60.1472	502.54
60.1616	537.27
60.1760	504.91
60.1905	521.50
60.2049	541.41
60.2194	543.63
60.2338	564.55
60.2482	515.76
60.2627	505.70
60.2771	513.05
60.2916	501.86
60.3060	524.26
60.3204	515.84
60.3349	526.83
60.3493	552.21
60.3638	554.79
60.3782	524.29
60.3926	485.59
60.4071	529.01
60.4215	542.14
60.4360	516.11
60.4504	527.32
60.4648	576.75
60.4793	565.65
60.4937	560.60
60.5082	506.32
60.5226	550.49
60.5370	560.84
60.5515	507.78
60.5659	532.45
60.5804	533.02
60.5948	498.41
60.6092	536.53
60.6237	512.31
60.6381	529.57
60.6526	545.88
60.6670	542.40
60.6814	516.84
60.6959	529.72
60.7103	511.56
60.7248	527.76
60.7392	516.51
60.7536	537.52
60.7681	536.06
60.7825	536.86
60.7970	522.03
60.8114	570.15
60.8258	567.06
60.8403	539.38
60.8547	557.58
60.8692	536.88
60.8836	509.93
60.8980	565.55
60.9125	565.60
60.9269	575.18
60.9414	575.77
60.9558	510.78
60.9702	521.83
60.9847	530.95
60.9991	556.25
61.0136	577.78
61.0280	518.14
61.0424	557.21
61.0569	522.12
61.0713	531.54
61.0858	524.47
61.1002	537.81
61.1146	547.12
61.1291	552.26
61.1435	525.51
61.1580	544.35
61.1724	564.51
61.1868	553.86
61.2013	530.35
61.2157	513.22
61.2302	510.69
61.2446	530.72
61.2590	551.98
61.2735	531.02
61.2879	540.88
61.3024	501.42
61.3168	536.45
61.3312	560.95
61.3457	569.89
61.3601	543.86
61.3746	539.98
61.3890	558.08
61.4034	538.30
61.4179	543.12
61.4323	577.18
61.4468	541.01
61.4612	560.30
61.4756	536.87
61.4901	503.13
61.5045	513.05
61.5190	551.15
61.5334	548.79
61.5478	550.06
61.5623	558.61
61.5767	525.08
61.5912	556.11
61.6056	536.15
61.6200	510.77
61.6345	533.99
61.6489	557.97
61.6634	557.19
61.6778	559.71
61.6922	554.45
61.7067	570.10
61.7211	561.96
61.7356	562.22
61.7500	542.98
61.7644	519.53
61.7789	538.35
61.7933	546.79
61.8078	541.17
61.8222	537.23
61.8366	546.01
61.8511	554.86
61.8655	555.56
61.8800	542.51
61.8944	565.85
61.9088	578.48
61.9233	533.37
61.9377	545.46
61.9522	537.77
61.9666	548.40
61.9810	534.75
61.9955	573.33
62.0099	527.33
62.0244	541.84
62.0388	552.27
62.0532	598.50
62.0677	532.84
62.0821	539.95
62.0966	540.91
62.1110	543.80
62.1254	552.58
62.1399	520.86
62.1543	540.27
62.1688	541.96
62.1832	537.03
62.1976	532.24
62.2121	540.25
62.2265	584.74
62.2410	588.60
62.2554	562.93
62.2698	529.35
62.2843	552.90
62.2987	547.56
62.3132	543.71
62.3276	541.48
62.3420	540.22
62.3565	516.08
62.3709	517.08
62.3854	564.80
62.3998	577.34
62.4142	568.47
62.4287	559.43
62.4431	559.59
62.4576	593.26
62.4720	571.65
62.4864	557.77
62.5009	539.33
62.5153	549.33
62.5298	537.28
62.5442	580.70
62.5586	584.24
62.5731	537.52
62.5875	562.06
62.6020	544.59
62.6164	570.16
62.6308	574.32
62.6453	574.88
62.6597	541.24
62.6742	516.88
62.6886	573.31
62.7030	580.54
62.7175	567.56
62.7319	565.29
62.7464	563.42
62.7608	554.61
62.7752	571.05
62.7897	578.93
62.8041	579.66
62.8186	556.78
62.8330	568.56
62.8474	547.78
62.8619	529.43
62.8763	516.48
62.8908	545.20
62.9052	583.74
62.9196	552.87
62.9341	576.92
62.9485	582.24
62.9630	571.49
62.9774	573.83
62.9918	585.29
63.0063	555.59
63.0207	577.40
63.0352	606.49
63.0496	575.60
63.0640	561.92
63.0785	569.21
63.0929	574.41
63.1074	562.65
63.1218	605.50
63.1362	582.88
63.1507	548.25
63.1651	566.81
63.1796	568.39
63.1940	567.31
63.2084	614.37
63.2229	609.16
63.2373	573.35
63.2518	566.81
63.2662	564.58
63.2806	608.60
63.2951	582.54
63.3095	598.74
63.3240	584.48
63.3384	607.35
63.3528	605.81
63.3673	604.95
63.3817	591.13
63.3962	613.77
63.4106	587.96
63.4250	628.21
63.4395	612.17
63.4539	674.17
63.4684	732.73
63.4828	729.18
63.4972	745.81
63.5117	809.32
63.5261	858.12
63.5406	915.41
63.5550	948.69
63.5694	926.54
63.5839	959.69
63.5983	931.82
63.6128	870.89
63.6272	847.48
63.6416	759.29
63.6561	754.22
63.6705	756.07
63.6850	773.34
63.6994	795.87
63.7138	852.52
63.7283	851.51
63.7427	830.23
63.7572	793.28
63.7716	759.04
63.7861	739.64
63.8005	767.65
63.8149	717.42
63.8294	683.41
63.8438	649.38
63.8583	663.03
63.8727	661.86
63.8871	604.43
63.9016	614.98
63.9160	592.55
63.9305	639.87
63.9449	638.24
63.9593	638.95
63.9738	585.72
63.9882	583.43
64.0027	613.41
64.0171	614.86
64.0315	642.20
64.0460	603.71
64.0604	657.45
64.0749	587.13
64.0893	616.91
64.1037	592.24
64.1182	604.44
64.1326	602.08
64.1471	584.34
64.1615	613.40
64.1759	565.00
64.1904	607.08
64.2048	590.43
64.2193	605.39
64.2337	607.54
64.2481	631.19
64.2626	586.64
64.2770	566.28
64.2915	575.46
64.3059	571.65
64.3203	571.33
64.3348	640.13
64.3492	600.40
64.3637	592.04
64.3781	630.11
64.3925	588.88
64.4070	604.41
64.4214	626.96
64.4359	657.75
64.4503	576.96
64.4647	586.49
64.4792	577.70
64.4936	578.54
64.5081	585.40
64.5225	610.87
64.5369	600.28
64.5514	624.19
64.5658	602.33
64.5803	630.18
64.5947	629.65
64.6091	648.42
64.6236	667.71
64.6380	640.75
64.6525	654.45
64.6669	640.44
64.6813	627.42
64.6958	676.08
64.7102	678.95
64.7247	654.17
64.7391	688.83
64.7535	684.32
64.7680	656.35
64.7824	721.67
64.7969	701.92
64.8113	735.48
64.8257	766.00
64.8402	784.44
64.8546	800.80
64.8691	831.11
64.8835	807.12
64.8979	856.66
64.9124	850.25
64.9268	877.55
64.9413	918.63
64.9557	990.47
64.9701	1004.44
64.9846	1066.65
64.9990	1139.50
65.0135	1277.25
65.0279	1364.73
65.0423	1580.58
65.0568	1984.27
65.0712	2524.01
65.0857	3217.57
65.1001	4333.42
65.1145	5818.40
65.1290	7634.73
65.1434	9240.01
65.1579	10772.00
65.1723	11577.73
65.1867	11127.84
65.2012	9828.98
65.2156	8245.84
65.2301	6563.55
65.2445	5184.64
65.2589	4357.73
65.2734	4120.23
65.2878	4304.80
65.3023	4849.78
65.3167	5598.15
65.3311	6490.26
65.3456	6899.19
65.3600	6751.39
65.3745	6243.40
65.3889	5435.00
65.4033	4377.25
65.4178	3466.52
65.4322	2772.84
65.4467	2079.43
65.4611	1700.64
65.4755	1449.21
65.4900	1254.10
65.5044	1152.27
65.5189	1002.84
65.5333	985.22
65.5477	943.15
65.5622	869.84
65.5766	816.31
65.5911	788.83
65.6055	791.38
65.6199	782.82
65.6344	770.09
65.6488	735.64
65.6633	734.68
65.6777	727.40
65.6921	709.51
65.7066	728.23
65.7210	691.87
65.7355	692.61
65.7499	684.21
65.7643	668.50
65.7788	672.71
65.7932	667.90
65.8077	668.54
65.8221	662.85
65.8365	660.35
65.8510	643.83
65.8654	623.70
65.8799	629.94
65.8943	621.37
65.9087	663.19
65.9232	666.78
65.9376	667.56
65.9521	635.35
65.9665	635.50
65.9809	644.85
65.9954	662.31
66.0098	627.30
66.0243	629.83
66.0387	662.15
66.0531	634.42
66.0676	602.51
66.0820	610.71
66.0965	648.85
66.1109	645.17
66.1253	661.44
66.1398	627.01
66.1542	596.35
66.1687	612.28
66.1831	595.37
66.1975	599.92
66.2120	599.18
66.2264	622.14
66.2409	620.16
66.2553	600.45
66.2697	609.40
66.2842	612.98
66.2986	566.62
66.3131	590.60
66.3275	614.93
66.3419	594.83
66.3564	603.24
66.3708	587.67
66.3853	582.91
66.3997	563.06
66.4141	603.33
66.4286	607.17
66.4430	585.82
66.4575	586.90
66.4719	593.22
66.4863	594.09
66.5008	555.68
66.5152	575.61
66.5297	582.38
66.5441	577.06
66.5585	583.87
66.5730	584.87
66.5874	621.65
66.6019	624.10
66.6163	575.79
66.6307	582.42
66.6452	564.91
66.6596	596.04
66.6741	567.76
66.6885	565.38
66.7029	576.83
66.7174	572.71
66.7318	574.01
66.7463	594.56
66.7607	593.49
66.7751	579.17
66.7896	592.79
66.8040	605.96
66.8185	609.12
66.8329	577.40
66.8473	575.04
66.8618	580.40
66.8762	564.06
66.8907	566.67
66.9051	612.73
66.9195	593.74
66.9340	583.26
66.9484	634.05
66.9629	631.67
66.9773	576.44
66.9917	549.29
67.0062	596.62
67.0206	578.33
67.0351	582.30
67.0495	598.21
67.0639	577.38
67.0784	570.18
67.0928	590.34
67.1073	602.33
67.1217	582.52
67.1361	588.63
67.1506	565.13
67.1650	619.81
67.1795	562.58
67.1939	552.45
67.2083	575.26
67.2228	583.87
67.2372	561.03
67.2517	606.94
67.2661	559.71
67.2805	568.79
67.2950	548.12
67.3094	557.20
67.3239	558.25
67.3383	559.40
67.3527	591.24
67.3672	589.73
67.3816	573.52
67.3961	571.16
67.4105	600.82
67.4250	586.67
67.4394	567.92
67.4538	550.40
67.4683	594.74
67.4827	584.73
67.4972	568.79
67.5116	562.73
67.5260	555.45
67.5405	553.02
67.5549	565.47
67.5694	561.71
67.5838	566.55
67.5982	557.61
67.6127	548.00
67.6271	563.44
67.6416	560.59
67.6560	526.11
67.6704	562.66
67.6849	549.56
67.6993	598.74
67.7138	551.85
67.7282	539.07
67.7426	587.10
67.7571	556.51
67.7715	529.20
67.7860	605.04
67.8004	568.11
67.8148	590.65
67.8293	551.43
67.8437	579.52
67.8582	548.47
67.8726	574.29
67.8870	563.48
67.9015	571.02
67.9159	556.69
67.9304	553.31
67.9448	597.98
67.9592	572.28
67.9737	561.87
67.9881	563.63
68.0026	577.19
68.0170	613.66
68.0314	588.49
68.0459	574.77
68.0603	595.14
68.0748	587.68
68.0892	622.88
68.1036	562.48
68.1181	574.77
68.1325	612.87
68.1470	526.66
68.1614	562.53
68.1758	564.46
68.1903	540.60
68.2047	533.01
68.2192	557.50
68.2336	548.02
68.2480	582.54
68.2625	570.46
68.2769	575.37
68.2914	577.87
68.3058	533.26
68.3202	548.25
68.3347	590.43
68.3491	567.70
68.3636	560.08
68.3780	589.19
68.3924	549.55
68.4069	549.37
68.4213	547.56
68.4358	617.78
68.4502	590.51
68.4646	597.12
68.4791	592.89
68.4935	584.45
68.5080	529.41
68.5224	565.85
68.5368	595.60
68.5513	561.55
68.5657	604.12
68.5802	547.50
68.5946	572.40
68.6090	609.33
68.6235	561.08
68.6379	600.54
68.6524	540.79
68.6668	591.27
68.6812	585.81
68.6957	566.42
68.7101	539.41
68.7246	561.18
68.7390	592.54
68.7534	562.34
68.7679	573.88
68.7823	549.76
68.7968	582.38
68.8112	565.48
68.8256	553.45
68.8401	553.46
68.8545	583.76
68.8690	582.87
68.8834	547.82
68.8978	574.71
68.9123	603.93
68.9267	610.65
68.9412	581.93
68.9556	571.32
68.9700	577.01
68.9845	590.34
68.9989	580.56
69.0134	560.55
69.0278	579.67
69.0422	570.16
69.0567	535.19
69.0711	557.01
69.0856	601.53
69.1000	644.19
69.1144	594.99
69.1289	576.92
69.1433	547.23
69.1578	536.65
69.1722	621.92
69.1866	581.24
69.2011	579.90
69.2155	560.72
69.2300	565.37
69.2444	552.13
69.2588	578.29
69.2733	547.00
69.2877	574.45
69.3022	571.43
69.3166	540.58
69.3310	606.63
69.3455	563.20
69.3599	571.01
69.3744	535.14
69.3888	547.96
69.4032	599.53
69.4177	565.14
69.4321	594.36
69.4466	564.69
69.4610	548.93
69.4754	592.18
69.4899	600.11
69.5043	569.08
69.5188	587.23
69.5332	622.57
69.5476	569.38
69.5621	563.98
69.5765	590.50
69.5910	545.45
69.6054	582.34
69.6198	583.81
69.6343	617.78
69.6487	555.98
69.6632	565.67
69.6776	552.47
69.6920	556.40
69.7065	573.36
69.7209	581.08
69.7354	607.03
69.7498	604.82
69.7642	564.97
69.7787	586.26
69.7931	582.24
69.8076	575.89
69.8220	540.57
69.8364	536.98
69.8509	544.47
69.8653	577.63
69.8798	529.85
69.8942	619.80
69.9086	615.32
69.9231	543.51
69.9375	590.10
69.9520	625.32
69.9664	544.24
69.9808	588.87
69.9953	583.52
70.0097	610.25
70.0242	591.78
70.0386	562.06
70.0530	565.15
70.0675	586.81
70.0819	583.08
70.0964	573.56
70.1108	588.40
70.1252	576.34
70.1397	583.46
70.1541	579.94
70.1686	603.16
70.1830	559.50
70.1974	547.13
70.2119	605.39
70.2263	580.76
70.2408	596.16
70.2552	595.55
70.2696	623.73
70.2841	601.43
70.2985	548.55
70.3130	564.70
70.3274	603.53
70.3418	576.60
70.3563	576.11
70.3707	599.15
70.3852	545.77
70.3996	518.31
70.4140	519.39
70.4285	584.96
70.4429	549.39
70.4574	548.09
70.4718	597.42
70.4862	587.23
70.5007	560.85
70.5151	582.76
70.5296	617.24
70.5440	533.37
70.5584	523.62
70.5729	553.62
70.5873	570.88
70.6018	583.06
70.6162	567.41
70.6306	594.35
70.6451	568.80
70.6595	594.61
70.6740	596.55
70.6884	535.75
70.7028	583.52
70.7173	615.64
70.7317	618.39
70.7462	574.44
70.7606	585.93
70.7750	557.21
70.7895	572.46
70.8039	612.21
70.8184	600.27
70.8328	591.63
70.8472	497.16
70.8617	530.41
70.8761	556.60
70.8906	559.94
70.9050	550.22
70.9194	604.50
70.9339	604.33
70.9483	594.56
70.9628	594.23
70.9772	616.55
70.9916	612.58
71.0061	575.79
71.0205	609.53
71.0350	563.18
71.0494	559.14
71.0638	553.61
71.0783	594.83
71.0927	595.04
71.1072	628.38
71.1216	637.52
71.1361	583.86
71.1505	555.07
71.1649	613.94
71.1794	636.24
71.1938	617.94
71.2083	584.77
71.2227	589.42
71.2371	608.21
71.2516	598.60
71.2660	586.12
71.2805	575.28
71.2949	597.21
71.3093	578.55
71.3238	547.57
71.3382	539.22
71.3527	575.02
71.3671	568.99
71.3815	571.23
71.3960	576.24
71.4104	576.50
71.4249	607.95
71.4393	609.22
71.4537	581.65
71.4682	585.90
71.4826	552.41
71.4971	551.42
71.5115	545.66
71.5259	541.21
71.5404	577.44
71.5548	575.11
71.5693	554.99
71.5837	561.84
71.5981	545.62
71.6126	569.61
71.6270	542.68
71.6415	511.07
71.6559	563.91
71.6703	570.60
71.6848	590.13
71.6992	644.17
71.7137	630.92
71.7281	551.47
71.7425	556.23
71.7570	554.88
71.7714	579.42
71.7859	544.87
71.8003	571.22
71.8147	556.60
71.8292	560.38
71.8436	624.58
71.8581	577.42
71.8725	543.54
71.8869	554.00
71.9014	715.79
71.9158	686.06
71.9303	546.34
71.9447	571.24
71.9591	576.52
71.9736	552.98
71.9880	554.51
72.0025	534.84
72.0169	549.61
72.0313	606.19
72.0458	623.74
72.0602	571.06
72.0747	555.40
72.0891	591.07
72.1035	648.97
72.1180	577.95
72.1324	536.97
72.1469	593.00
72.1613	551.16
72.1757	615.66
72.1902	681.43
72.2046	618.14
72.2191	569.83
72.2335	586.59
72.2479	605.71
72.2624	620.67
72.2768	606.23
72.2913	559.64
72.3057	500.71
72.3201	543.68
72.3346	590.32
72.3490	547.04
72.3635	553.30
72.3779	626.66
72.3923	585.12
72.4068	594.90
72.4212	540.59
72.4357	561.76
72.4501	566.49
72.4645	590.14
72.4790	601.18
72.4934	505.24
72.5079	557.21
72.5223	567.65
72.5367	516.31
72.5512	538.83
72.5656	577.24
72.5801	512.16
72.5945	490.82
72.6089	567.01
72.6234	593.96
72.6378	610.33
72.6523	571.68
72.6667	535.40
72.6811	477.33
72.6956	561.40
72.7100	614.29
72.7245	497.82
72.7389	549.76
72.7533	615.87
72.7678	578.88
72.7822	604.92
72.7967	565.33
72.8111	524.61
72.8255	569.98
72.8400	536.69
72.8544	442.22
72.8689	541.78
72.8833	598.65