2022.09.19 19:37:17
Îáðàçåö: ß÷åéêà LCoV 16-09-2022
Lambda1 = 1.54060
Lambda2 = 1.54439
Lambdam = 1.54186
R = 0.497
2Theta	I

line¹ 0 ;repeat¹ 0
22.1120	628.89
22.1264	571.36
22.1409	519.93
22.1553	511.38
22.1697	563.96
22.1842	583.90
22.1986	561.71
22.2131	507.99
22.2275	586.21
22.2419	572.41
22.2564	570.09
22.2708	574.39
22.2853	624.07
22.2997	524.53
22.3141	570.48
22.3286	560.92
22.3430	569.34
22.3575	563.19
22.3719	544.80
22.3863	548.27
22.4008	547.84
22.4152	514.93
22.4297	600.41
22.4441	635.29
22.4585	608.46
22.4730	550.18
22.4874	522.97
22.5019	559.58
22.5163	661.56
22.5307	550.09
22.5452	564.93
22.5596	507.08
22.5741	569.99
22.5885	619.02
22.6029	626.52
22.6174	541.18
22.6318	560.00
22.6463	537.17
22.6607	605.88
22.6751	617.09
22.6896	561.56
22.7040	597.19
22.7185	552.95
22.7329	591.34
22.7473	514.99
22.7618	516.90
22.7762	484.02
22.7907	582.18
22.8051	562.00
22.8195	558.17
22.8340	608.14
22.8484	579.09
22.8629	514.79
22.8773	531.90
22.8917	532.05
22.9062	598.09
22.9206	556.42
22.9351	560.55
22.9495	602.77
22.9639	504.51
22.9784	560.27
22.9928	617.24
23.0073	563.30
23.0217	599.49
23.0361	581.60
23.0506	521.53
23.0650	574.15
23.0795	631.75
23.0939	573.21
23.1083	586.45
23.1228	583.21
23.1372	613.44
23.1517	544.05
23.1661	533.19
23.1806	541.45
23.1950	490.20
23.2094	488.90
23.2239	558.88
23.2383	541.63
23.2528	556.55
23.2672	565.04
23.2816	570.04
23.2961	535.17
23.3105	530.55
23.3250	537.31
23.3394	593.82
23.3538	604.71
23.3683	566.50
23.3827	517.80
23.3972	494.84
23.4116	481.86
23.4260	556.19
23.4405	490.20
23.4549	541.60
23.4694	576.94
23.4838	673.43
23.4982	562.28
23.5127	541.19
23.5271	590.80
23.5416	480.28
23.5560	611.35
23.5704	622.80
23.5849	562.83
23.5993	622.78
23.6138	600.30
23.6282	562.05
23.6426	520.54
23.6571	542.65
23.6715	531.66
23.6860	543.30
23.7004	550.71
23.7148	564.62
23.7293	566.08
23.7437	590.26
23.7582	490.99
23.7726	529.84
23.7870	579.37
23.8015	566.89
23.8159	549.72
23.8304	575.07
23.8448	540.07
23.8592	565.33
23.8737	573.06
23.8881	524.09
23.9026	604.84
23.9170	532.96
23.9314	463.90
23.9459	503.74
23.9603	643.79
23.9748	603.34
23.9892	563.41
24.0036	545.20
24.0181	582.77
24.0325	511.35
24.0470	543.64
24.0614	503.62
24.0758	527.67
24.0903	624.88
24.1047	472.33
24.1192	577.64
24.1336	534.00
24.1480	544.48
24.1625	531.71
24.1769	560.71
24.1914	586.27
24.2058	563.95
24.2202	607.47
24.2347	636.18
24.2491	567.20
24.2636	613.73
24.2780	606.87
24.2924	589.97
24.3069	587.13
24.3213	591.75
24.3358	579.27
24.3502	536.14
24.3646	569.09
24.3791	556.04
24.3935	536.19
24.4080	554.44
24.4224	562.54
24.4368	556.14
24.4513	509.17
24.4657	557.27
24.4802	550.70
24.4946	562.16
24.5090	551.57
24.5235	527.30
24.5379	526.66
24.5524	541.13
24.5668	534.25
24.5812	538.20
24.5957	533.73
24.6101	531.05
24.6246	553.60
24.6390	523.36
24.6534	566.88
24.6679	532.21
24.6823	570.49
24.6968	540.92
24.7112	581.12
24.7256	545.46
24.7401	543.51
24.7545	525.24
24.7690	523.52
24.7834	561.44
24.7978	532.16
24.8123	553.91
24.8267	543.04
24.8412	527.32
24.8556	508.56
24.8700	591.37
24.8845	633.74
24.8989	523.57
24.9134	553.27
24.9278	474.63
24.9422	545.25
24.9567	452.52
24.9711	529.26
24.9856	541.02
25.0000	509.22
25.0144	505.29
25.0289	585.66
25.0433	555.78
25.0578	553.84
25.0722	535.90
25.0866	581.92
25.1011	532.35
25.1155	537.07
25.1300	583.71
25.1444	556.60
25.1588	540.88
25.1733	598.15
25.1877	596.93
25.2022	535.86
25.2166	515.87
25.2310	542.36
25.2455	551.31
25.2599	551.52
25.2744	501.69
25.2888	538.83
25.3032	536.37
25.3177	530.61
25.3321	525.31
25.3466	517.64
25.3610	528.64
25.3754	509.05
25.3899	505.01
25.4043	535.28
25.4188	511.69
25.4332	541.84
25.4476	539.21
25.4621	511.02
25.4765	571.95
25.4910	550.65
25.5054	558.33
25.5198	542.69
25.5343	536.58
25.5487	524.23
25.5632	510.53
25.5776	509.94
25.5920	533.87
25.6065	539.73
25.6209	521.17
25.6354	540.27
25.6498	512.07
25.6642	554.76
25.6787	535.48
25.6931	521.04
25.7076	528.74
25.7220	574.58
25.7364	585.05
25.7509	538.06
25.7653	542.48
25.7798	534.65
25.7942	587.22
25.8086	540.16
25.8231	517.68
25.8375	557.32
25.8520	553.11
25.8664	577.31
25.8808	544.33
25.8953	566.45
25.9097	546.42
25.9242	500.19
25.9386	498.84
25.9530	518.09
25.9675	521.24
25.9819	557.02
25.9964	557.68
26.0108	565.37
26.0252	536.57
26.0397	529.06
26.0541	507.03
26.0686	503.76
26.0830	527.59
26.0974	538.93
26.1119	516.50
26.1263	526.37
26.1408	514.28
26.1552	548.31
26.1696	543.63
26.1841	531.56
26.1985	540.99
26.2130	572.29
26.2274	544.55
26.2418	561.50
26.2563	534.98
26.2707	553.67
26.2852	556.48
26.2996	531.77
26.3140	477.28
26.3285	515.60
26.3429	534.48
26.3574	524.83
26.3718	533.98
26.3862	503.15
26.4007	514.69
26.4151	535.41
26.4296	519.69
26.4440	515.50
26.4584	532.00
26.4729	523.50
26.4873	536.76
26.5018	547.03
26.5162	497.47
26.5306	548.12
26.5451	546.64
26.5595	562.57
26.5740	518.29
26.5884	531.76
26.6028	499.85
26.6173	510.05
26.6317	546.92
26.6462	523.67
26.6606	505.92
26.6750	489.81
26.6895	513.72
26.7039	530.15
26.7184	533.42
26.7328	502.36
26.7472	544.50
26.7617	532.98
26.7761	515.77
26.7906	491.57
26.8050	519.24
26.8194	514.38
26.8339	520.46
26.8483	534.64
26.8628	553.83
26.8772	531.95
26.8917	512.23
26.9061	518.97
26.9205	532.87
26.9350	543.50
26.9494	550.08
26.9639	522.69
26.9783	500.23
26.9927	492.95
27.0072	502.27
27.0216	516.37
27.0361	518.83
27.0505	512.51
27.0649	518.18
27.0794	526.24
27.0938	551.83
27.1083	534.75
27.1227	534.94
27.1371	533.03
27.1516	495.56
27.1660	510.98
27.1805	533.53
27.1949	523.02
27.2093	521.12
27.2238	509.82
27.2382	505.15
27.2527	527.28
27.2671	491.79
27.2815	523.80
27.2960	543.21
27.3104	550.78
27.3249	563.56
27.3393	557.92
27.3537	552.62
27.3682	507.09
27.3826	522.27
27.3971	507.12
27.4115	535.16
27.4259	528.72
27.4404	497.31
27.4548	493.42
27.4693	519.12
27.4837	521.16
27.4981	527.19
27.5126	525.29
27.5270	533.25
27.5415	524.32
27.5559	527.39
27.5703	524.02
27.5848	515.69
27.5992	512.09
27.6137	512.35
27.6281	499.56
27.6425	527.15
27.6570	506.15
27.6714	516.95
27.6859	516.23
27.7003	526.37
27.7147	527.77
27.7292	526.58
27.7436	516.90
27.7581	505.19
27.7725	486.44
27.7869	517.82
27.8014	495.35
27.8158	509.24
27.8303	491.51
27.8447	515.85
27.8591	525.62
27.8736	564.33
27.8880	505.99
27.9025	540.63
27.9169	522.68
27.9313	516.51
27.9458	501.51
27.9602	495.48
27.9747	541.85
27.9891	549.23
28.0035	523.74
28.0180	524.69
28.0324	525.59
28.0469	509.34
28.0613	499.44
28.0757	516.10
28.0902	515.19
28.1046	519.16
28.1191	530.88
28.1335	517.81
28.1479	512.53
28.1624	523.34
28.1768	541.50
28.1913	512.99
28.2057	472.31
28.2201	529.02
28.2346	519.32
28.2490	506.85
28.2635	468.40
28.2779	525.10
28.2923	502.87
28.3068	518.93
28.3212	523.04
28.3357	541.83
28.3501	514.95
28.3645	521.58
28.3790	527.94
28.3934	499.47
28.4079	526.20
28.4223	543.39
28.4367	502.45
28.4512	510.15
28.4656	501.88
28.4801	533.64
28.4945	514.49
28.5089	502.80
28.5234	490.56
28.5378	482.86
28.5523	506.32
28.5667	509.18
28.5811	509.10
28.5956	510.05
28.6100	501.60
28.6245	515.35
28.6389	528.11
28.6533	500.01
28.6678	491.62
28.6822	507.12
28.6967	503.35
28.7111	547.74
28.7255	508.10
28.7400	501.44
28.7544	536.56
28.7689	501.02
28.7833	518.68
28.7977	515.14
28.8122	509.55
28.8266	524.83
28.8411	523.13
28.8555	532.23
28.8699	534.09
28.8844	524.81
28.8988	524.75
28.9133	520.75
28.9277	497.58
28.9421	532.72
28.9566	522.82
28.9710	521.75
28.9855	509.51
28.9999	532.03
29.0143	503.24
29.0288	536.20
29.0432	537.36
29.0577	505.72
29.0721	490.94
29.0865	502.44
29.1010	526.47
29.1154	512.75
29.1299	510.98
29.1443	477.42
29.1587	486.76
29.1732	521.72
29.1876	502.97
29.2021	510.58
29.2165	512.91
29.2309	524.73
29.2454	527.32
29.2598	481.86
29.2743	491.70
29.2887	505.09
29.3031	518.41
29.3176	540.03
29.3320	519.59
29.3465	491.80
29.3609	492.17
29.3753	485.16
29.3898	507.16
29.4042	505.91
29.4187	502.73
29.4331	529.72
29.4475	470.06
29.4620	503.79
29.4764	524.58
29.4909	541.08
29.5053	506.44
29.5197	496.91
29.5342	525.33
29.5486	499.25
29.5631	494.03
29.5775	493.96
29.5919	537.01
29.6064	514.72
29.6208	520.31
29.6353	503.68
29.6497	514.94
29.6641	500.70
29.6786	550.09
29.6930	537.27
29.7075	534.84
29.7219	509.59
29.7363	541.04
29.7508	488.46
29.7652	468.90
29.7797	490.09
29.7941	490.50
29.8085	503.73
29.8230	513.62
29.8374	496.87
29.8519	483.29
29.8663	510.30
29.8807	500.91
29.8952	512.40
29.9096	540.65
29.9241	493.97
29.9385	518.72
29.9529	487.36
29.9674	483.54
29.9818	528.44
29.9963	517.95
30.0107	517.86
30.0251	515.84
30.0396	503.85
30.0540	497.73
30.0685	492.87
30.0829	483.39
30.0973	515.04
30.1118	499.07
30.1262	487.96
30.1407	496.93
30.1551	459.05
30.1695	495.97
30.1840	482.65
30.1984	483.63
30.2129	508.62
30.2273	508.27
30.2417	526.04
30.2562	507.57
30.2706	521.70
30.2851	548.04
30.2995	538.51
30.3139	525.68
30.3284	527.90
30.3428	559.04
30.3573	539.72
30.3717	515.02
30.3861	523.50
30.4006	495.91
30.4150	516.11
30.4295	500.52
30.4439	541.32
30.4583	577.42
30.4728	587.48
30.4872	592.79
30.5017	614.72
30.5161	618.68
30.5305	676.52
30.5450	744.29
30.5594	748.99
30.5739	766.96
30.5883	733.89
30.6028	740.07
30.6172	702.59
30.6316	715.64
30.6461	643.23
30.6605	653.03
30.6750	658.15
30.6894	623.48
30.7038	601.23
30.7183	595.66
30.7327	556.02
30.7472	528.37
30.7616	535.83
30.7760	558.53
30.7905	546.60
30.8049	544.65
30.8194	481.50
30.8338	476.50
30.8482	488.16
30.8627	523.23
30.8771	499.13
30.8916	517.69
30.9060	533.18
30.9204	493.03
30.9349	478.41
30.9493	514.92
30.9638	542.53
30.9782	521.93
30.9926	497.29
31.0071	485.34
31.0215	483.80
31.0360	499.22
31.0504	509.64
31.0648	535.00
31.0793	523.52
31.0937	494.97
31.1082	495.79
31.1226	516.56
31.1370	480.93
31.1515	499.65
31.1659	529.34
31.1804	521.47
31.1948	509.56
31.2092	524.84
31.2237	510.41
31.2381	513.61
31.2526	526.54
31.2670	528.16
31.2814	541.10
31.2959	497.55
31.3103	509.76
31.3248	534.77
31.3392	529.62
31.3536	520.94
31.3681	528.95
31.3825	554.72
31.3970	521.73
31.4114	484.46
31.4258	534.59
31.4403	503.12
31.4547	498.02
31.4692	492.46
31.4836	519.16
31.4980	516.16
31.5125	480.35
31.5269	497.93
31.5414	526.74
31.5558	491.25
31.5702	487.94
31.5847	502.68
31.5991	485.73
31.6136	498.35
31.6280	478.85
31.6424	485.45
31.6569	473.94
31.6713	504.48
31.6858	502.25
31.7002	516.49
31.7146	480.51
31.7291	479.55
31.7435	510.14
31.7580	489.71
31.7724	503.56
31.7868	491.88
31.8013	484.45
31.8157	509.79
31.8302	488.82
31.8446	527.44
31.8590	514.78
31.8735	523.21
31.8879	542.94
31.9024	508.42
31.9168	505.85
31.9312	521.92
31.9457	558.99
31.9601	477.85
31.9746	512.42
31.9890	499.03
32.0034	479.76
32.0179	511.84
32.0323	537.65
32.0468	525.45
32.0612	494.79
32.0756	485.22
32.0901	517.00
32.1045	520.90
32.1190	515.44
32.1334	500.78
32.1478	486.68
32.1623	500.42
32.1767	494.93
32.1912	509.25
32.2056	506.12
32.2200	502.74
32.2345	461.32
32.2489	498.75
32.2634	487.20
32.2778	518.30
32.2922	494.36
32.3067	500.24
32.3211	494.96
32.3356	516.55
32.3500	502.30
32.3644	497.30
32.3789	525.59
32.3933	509.14
32.4078	487.31
32.4222	508.54
32.4366	508.05
32.4511	499.01
32.4655	525.83
32.4800	490.24
32.4944	495.69
32.5088	466.24
32.5233	479.34
32.5377	489.77
32.5522	543.60
32.5666	482.32
32.5810	481.61
32.5955	525.70
32.6099	505.80
32.6244	487.24
32.6388	460.73
32.6532	508.07
32.6677	522.23
32.6821	494.67
32.6966	488.97
32.7110	524.94
32.7254	463.32
32.7399	483.26
32.7543	516.55
32.7688	495.43
32.7832	507.97
32.7976	481.60
32.8121	545.48
32.8265	530.58
32.8410	528.28
32.8554	496.82
32.8698	526.43
32.8843	501.34
32.8987	515.48
32.9132	568.01
32.9276	460.22
32.9420	471.16
32.9565	478.46
32.9709	480.91
32.9854	496.22
32.9998	489.26
33.0142	488.40
33.0287	489.38
33.0431	497.18
33.0576	535.53
33.0720	492.01
33.0864	542.40
33.1009	498.66
33.1153	500.66
33.1298	498.90
33.1442	484.38
33.1586	495.67
33.1731	536.33
33.1875	485.09
33.2020	480.59
33.2164	476.37
33.2308	503.80
33.2453	513.62
33.2597	505.13
33.2742	491.11
33.2886	509.01
33.3030	488.87
33.3175	477.65
33.3319	479.43
33.3464	499.73
33.3608	453.44
33.3752	479.02
33.3897	464.58
33.4041	505.86
33.4186	486.56
33.4330	518.05
33.4474	491.33
33.4619	509.83
33.4763	496.43
33.4908	500.81
33.5052	505.00
33.5196	502.06
33.5341	516.73
33.5485	532.63
33.5630	505.26
33.5774	473.64
33.5918	496.43
33.6063	493.18
33.6207	473.27
33.6352	513.95
33.6496	501.31
33.6640	499.92
33.6785	496.20
33.6929	484.90
33.7074	497.81
33.7218	516.80
33.7362	507.28
33.7507	474.18
33.7651	490.80
33.7796	506.36
33.7940	499.64
33.8084	540.50
33.8229	522.72
33.8373	523.96
33.8518	499.22
33.8662	526.55
33.8806	496.28
33.8951	502.42
33.9095	522.13
33.9240	497.10
33.9384	533.36
33.9528	461.89
33.9673	454.56
33.9817	496.61
33.9962	497.25
34.0106	501.36
34.0250	496.66
34.0395	501.58
34.0539	522.22
34.0684	517.12
34.0828	528.05
34.0972	492.12
34.1117	481.72
34.1261	514.92
34.1406	502.28
34.1550	469.76
34.1694	499.28
34.1839	514.58
34.1983	507.05
34.2128	526.11
34.2272	490.38
34.2417	492.94
34.2561	510.76
34.2705	489.19
34.2850	498.92
34.2994	475.04
34.3139	496.50
34.3283	543.91
34.3427	515.98
34.3572	504.51
34.3716	502.10
34.3861	479.38
34.4005	487.08
34.4149	511.66
34.4294	524.35
34.4438	528.49
34.4583	517.50
34.4727	529.32
34.4871	508.34
34.5016	466.09
34.5160	507.05
34.5305	501.78
34.5449	488.10
34.5593	520.74
34.5738	514.70
34.5882	511.15
34.6027	486.26
34.6171	496.95
34.6315	504.08
34.6460	497.50
34.6604	464.11
34.6749	492.60
34.6893	487.43
34.7037	501.88
34.7182	534.22
34.7326	525.61
34.7471	514.80
34.7615	512.99
34.7759	509.14
34.7904	483.47
34.8048	475.96
34.8193	478.63
34.8337	515.66
34.8481	515.50
34.8626	499.37
34.8770	506.56
34.8915	491.20
34.9059	496.57
34.9203	527.79
34.9348	505.79
34.9492	509.27
34.9637	481.08
34.9781	481.48
34.9925	486.00
35.0070	480.24
35.0214	509.42
35.0359	505.87
35.0503	479.81
35.0647	496.02
35.0792	501.33
35.0936	504.94
35.1081	493.19
35.1225	495.02
35.1369	511.66
35.1514	487.79
35.1658	475.17
35.1803	471.45
35.1947	497.58
35.2091	518.41
35.2236	531.47
35.2380	497.30
35.2525	541.07
35.2669	537.86
35.2813	514.01
35.2958	509.16
35.3102	507.62
35.3247	505.22
35.3391	504.90
35.3535	512.21
35.3680	498.61
35.3824	492.03
35.3969	499.45
35.4113	497.67
35.4257	509.65
35.4402	495.95
35.4546	491.29
35.4691	536.26
35.4835	510.60
35.4979	498.50
35.5124	549.26
35.5268	521.85
35.5413	541.50
35.5557	529.14
35.5701	506.52
35.5846	516.59
35.5990	504.11
35.6135	514.87
35.6279	517.67
35.6423	514.07
35.6568	522.40
35.6712	550.99
35.6857	544.64
35.7001	669.87
35.7145	792.28
35.7290	758.21
35.7434	663.21
35.7579	623.58
35.7723	628.64
35.7867	689.93
35.8012	732.42
35.8156	721.83
35.8301	746.10
35.8445	685.72
35.8589	774.77
35.8734	887.97
35.8878	1001.52
35.9023	1114.45
35.9167	1127.58
35.9311	1251.42
35.9456	1550.39
35.9600	1885.17
35.9745	2048.19
35.9889	2190.08
36.0033	2595.92
36.0178	3024.15
36.0322	3143.24
36.0467	2782.83
36.0611	2131.25
36.0755	1996.05
36.0900	2311.19
36.1044	2428.11
36.1189	1814.22
36.1333	1381.17
36.1477	1017.62
36.1622	1013.56
36.1766	957.80
36.1911	892.08
36.2055	773.67
36.2199	695.11
36.2344	717.10
36.2488	648.63
36.2633	572.47
36.2777	565.27
36.2921	570.86
36.3066	542.39
36.3210	532.72
36.3355	561.38
36.3499	569.16
36.3643	551.77
36.3788	528.19
36.3932	531.96
36.4077	530.52
36.4221	572.78
36.4365	541.39
36.4510	519.51
36.4654	529.50
36.4799	529.34
36.4943	526.57
36.5087	501.36
36.5232	548.17
36.5376	495.71
36.5521	500.09
36.5665	523.26
36.5809	507.35
36.5954	521.98
36.6098	510.19
36.6243	499.65
36.6387	519.01
36.6531	510.75
36.6676	502.55
36.6820	519.70
36.6965	486.82
36.7109	525.48
36.7253	511.20
36.7398	502.74
36.7542	540.47
36.7687	540.57
36.7831	532.17
36.7975	545.34
36.8120	560.94
36.8264	543.52
36.8409	571.33
36.8553	614.44
36.8697	608.35
36.8842	585.81
36.8986	577.07
36.9131	608.04
36.9275	571.33
36.9419	534.28
36.9564	621.93
36.9708	564.51
36.9853	554.67
36.9997	535.62
37.0141	516.31
37.0286	535.44
37.0430	568.41
37.0575	549.42
37.0719	513.84
37.0863	511.86
37.1008	484.68
37.1152	518.10
37.1297	510.48
37.1441	479.07
37.1585	479.00
37.1730	513.48
37.1874	490.67
37.2019	482.91
37.2163	492.01
37.2307	517.65
37.2452	528.11
37.2596	506.23
37.2741	502.25
37.2885	496.97
37.3029	490.52
37.3174	495.79
37.3318	487.41
37.3463	542.51
37.3607	502.66
37.3751	504.40
37.3896	463.86
37.4040	487.00
37.4185	511.27
37.4329	531.95
37.4473	504.95
37.4618	490.18
37.4762	503.73
37.4907	519.41
37.5051	497.91
37.5195	512.16
37.5340	511.31
37.5484	532.95
37.5629	511.49
37.5773	493.25
37.5917	501.20
37.6062	514.25
37.6206	534.21
37.6351	532.47
37.6495	510.90
37.6639	510.80
37.6784	487.68
37.6928	498.54
37.7073	539.23
37.7217	523.26
37.7361	494.41
37.7506	509.41
37.7650	475.02
37.7795	515.60
37.7939	496.98
37.8083	521.44
37.8228	503.69
37.8372	491.65
37.8517	481.13
37.8661	527.87
37.8805	516.62
37.8950	473.90
37.9094	541.05
37.9239	534.82
37.9383	502.08
37.9528	519.33
37.9672	492.11
37.9816	522.94
37.9961	498.19
38.0105	486.73
38.0250	501.95
38.0394	512.72
38.0538	486.73
38.0683	541.31
38.0827	525.68
38.0972	497.83
38.1116	496.57
38.1260	505.91
38.1405	516.53
38.1549	490.90
38.1694	509.26
38.1838	516.66
38.1982	494.06
38.2127	494.50
38.2271	488.23
38.2416	533.84
38.2560	504.25
38.2704	525.36
38.2849	494.60
38.2993	526.29
38.3138	535.10
38.3282	541.71
38.3426	533.12
38.3571	498.85
38.3715	503.75
38.3860	500.97
38.4004	534.33
38.4148	559.55
38.4293	539.99
38.4437	562.31
38.4582	582.26
38.4726	606.47
38.4870	639.48
38.5015	761.65
38.5159	779.79
38.5304	798.66
38.5448	823.00
38.5592	777.09
38.5737	709.36
38.5881	718.97
38.6026	729.00
38.6170	712.90
38.6314	698.36
38.6459	676.74
38.6603	630.74
38.6748	606.70
38.6892	613.49
38.7036	578.73
38.7181	522.50
38.7325	520.43
38.7470	502.46
38.7614	516.55
38.7758	531.59
38.7903	514.28
38.8047	534.49
38.8192	523.39
38.8336	545.33
38.8480	514.45
38.8625	502.82
38.8769	498.23
38.8914	509.14
38.9058	541.85
38.9202	522.55
38.9347	513.42
38.9491	496.80
38.9636	505.65
38.9780	512.27
38.9924	515.66
39.0069	497.14
39.0213	499.94
39.0358	506.94
39.0502	509.91
39.0646	500.64
39.0791	505.99
39.0935	503.07
39.1080	464.07
39.1224	505.94
39.1368	490.43
39.1513	518.66
39.1657	520.65
39.1802	505.36
39.1946	494.48
39.2090	501.30
39.2235	508.90
39.2379	522.33
39.2524	493.29
39.2668	493.70
39.2812	531.52
39.2957	497.04
39.3101	486.62
39.3246	493.43
39.3390	513.30
39.3534	486.66
39.3679	508.22
39.3823	499.23
39.3968	498.60
39.4112	493.80
39.4256	518.21
39.4401	510.55
39.4545	492.72
39.4690	510.69
39.4834	506.20
39.4978	517.05
39.5123	477.90
39.5267	489.47
39.5412	513.73
39.5556	485.48
39.5700	485.78
39.5845	482.15
39.5989	501.06
39.6134	506.70
39.6278	490.30
39.6422	480.67
39.6567	512.77
39.6711	492.68
39.6856	499.72
39.7000	542.08
39.7144	539.80
39.7289	507.94
39.7433	505.87
39.7578	488.99
39.7722	527.39
39.7866	510.01
39.8011	491.28
39.8155	511.10
39.8300	505.89
39.8444	485.68
39.8588	505.39
39.8733	492.49
39.8877	484.47
39.9022	529.29
39.9166	447.13
39.9310	478.67
39.9455	494.12
39.9599	492.67
39.9744	465.61
39.9888	476.13
40.0032	457.58
40.0177	491.59
40.0321	534.22
40.0466	489.87
40.0610	502.94
40.0754	513.69
40.0899	498.11
40.1043	488.67
40.1188	484.28
40.1332	498.92
40.1476	495.50
40.1621	481.68
40.1765	489.85
40.1910	468.23
40.2054	446.17
40.2198	500.53
40.2343	535.43
40.2487	499.02
40.2632	486.65
40.2776	511.28
40.2920	507.98
40.3065	493.42
40.3209	463.34
40.3354	489.66
40.3498	495.43
40.3642	487.69
40.3787	453.46
40.3931	512.63
40.4076	493.23
40.4220	477.67
40.4364	487.50
40.4509	499.45
40.4653	494.66
40.4798	494.24
40.4942	491.17
40.5086	463.79
40.5231	478.86
40.5375	478.17
40.5520	492.33
40.5664	505.98
40.5808	498.51
40.5953	487.07
40.6097	506.94
40.6242	488.69
40.6386	511.54
40.6530	476.65
40.6675	483.49
40.6819	509.24
40.6964	499.88
40.7108	518.53
40.7252	483.53
40.7397	484.66
40.7541	512.66
40.7686	463.03
40.7830	507.77
40.7974	525.91
40.8119	515.73
40.8263	459.71
40.8408	480.65
40.8552	531.17
40.8696	494.32
40.8841	471.27
40.8985	462.47
40.9130	496.02
40.9274	529.67
40.9418	504.70
40.9563	486.87
40.9707	460.12
40.9852	493.94
40.9996	502.01
41.0140	520.92
41.0285	514.15
41.0429	509.96
41.0574	504.80
41.0718	518.34
41.0862	515.97
41.1007	522.32
41.1151	517.64
41.1296	531.97
41.1440	460.08
41.1584	498.35
41.1729	498.07
41.1873	508.23
41.2018	487.38
41.2162	491.12
41.2306	476.48
41.2451	518.43
41.2595	483.93
41.2740	462.81
41.2884	500.29
41.3028	495.38
41.3173	509.34
41.3317	463.46
41.3462	531.62
41.3606	507.62
41.3750	493.74
41.3895	505.23
41.4039	479.03
41.4184	486.54
41.4328	498.51
41.4472	476.39
41.4617	492.63
41.4761	524.46
41.4906	501.73
41.5050	493.77
41.5194	496.20
41.5339	515.49
41.5483	507.83
41.5628	496.08
41.5772	526.09
41.5916	506.43
41.6061	498.69
41.6205	493.63
41.6350	497.78
41.6494	510.77
41.6639	474.44
41.6783	467.22
41.6927	484.26
41.7072	532.10
41.7216	519.71
41.7361	498.24
41.7505	498.10
41.7649	511.26
41.7794	492.49
41.7938	488.40
41.8083	518.94
41.8227	498.08
41.8371	530.94
41.8516	515.63
41.8660	501.82
41.8805	532.87
41.8949	520.10
41.9093	536.31
41.9238	546.20
41.9382	559.35
41.9527	541.54
41.9671	538.73
41.9815	535.97
41.9960	604.85
42.0104	579.18
42.0249	539.52
42.0393	548.69
42.0537	546.76
42.0682	559.85
42.0826	591.30
42.0971	622.89
42.1115	551.78
42.1259	590.73
42.1404	596.42
42.1548	585.40
42.1693	674.19
42.1837	690.44
42.1981	739.88
42.2126	851.89
42.2270	914.97
42.2415	1023.35
42.2559	1191.71
42.2703	1351.47
42.2848	1512.77
42.2992	1529.56
42.3137	1623.82
42.3281	1655.16
42.3425	1573.47
42.3570	1447.88
42.3714	1395.02
42.3859	1344.60
42.4003	1270.12
42.4147	1298.06
42.4292	1246.18
42.4436	1096.28
42.4581	1001.89
42.4725	948.27
42.4869	811.09
42.5014	718.52
42.5158	707.62
42.5303	655.10
42.5447	630.14
42.5591	619.92
42.5736	572.46
42.5880	578.53
42.6025	545.88
42.6169	536.82
42.6313	554.59
42.6458	531.56
42.6602	543.70
42.6747	534.91
42.6891	539.64
42.7035	547.03
42.7180	534.14
42.7324	571.52
42.7469	534.04
42.7613	518.42
42.7757	514.83
42.7902	499.47
42.8046	512.99
42.8191	544.68
42.8335	541.91
42.8479	505.58
42.8624	516.72
42.8768	499.01
42.8913	501.11
42.9057	529.24
42.9201	511.15
42.9346	520.05
42.9490	488.20
42.9635	477.25
42.9779	505.09
42.9923	490.12
43.0068	497.47
43.0212	529.16
43.0357	505.21
43.0501	493.88
43.0645	491.71
43.0790	480.56
43.0934	509.90
43.1079	510.24
43.1223	512.73
43.1367	528.11
43.1512	489.09
43.1656	527.35
43.1801	512.71
43.1945	507.94
43.2089	514.40
43.2234	525.71
43.2378	550.45
43.2523	524.18
43.2667	526.86
43.2811	526.07
43.2956	530.17
43.3100	537.84
43.3245	531.31
43.3389	520.41
43.3533	500.08
43.3678	516.43
43.3822	512.43
43.3967	487.88
43.4111	500.32
43.4255	527.34
43.4400	521.38
43.4544	506.00
43.4689	537.51
43.4833	527.96
43.4977	509.03
43.5122	508.03
43.5266	530.09
43.5411	535.05
43.5555	527.25
43.5699	539.44
43.5844	547.10
43.5988	540.98
43.6133	525.48
43.6277	548.12
43.6421	558.54
43.6566	526.49
43.6710	526.33
43.6855	576.48
43.6999	619.61
43.7143	632.38
43.7288	623.49
43.7432	685.18
43.7577	675.94
43.7721	668.43
43.7865	645.27
43.8010	591.90
43.8154	623.24
43.8299	618.19
43.8443	586.05
43.8587	619.64
43.8732	620.81
43.8876	574.01
43.9021	592.39
43.9165	559.18
43.9309	553.83
43.9454	513.97
43.9598	489.30
43.9743	524.01
43.9887	538.98
44.0031	520.58
44.0176	511.58
44.0320	525.51
44.0465	572.17
44.0609	568.06
44.0753	508.37
44.0898	537.09
44.1042	525.32
44.1187	532.17
44.1331	538.73
44.1475	474.23
44.1620	509.45
44.1764	495.62
44.1909	498.02
44.2053	492.72
44.2197	524.36
44.2342	545.45
44.2486	551.95
44.2631	532.52
44.2775	501.32
44.2919	521.55
44.3064	519.93
44.3208	556.02
44.3353	560.09
44.3497	554.15
44.3641	538.57
44.3786	539.45
44.3930	563.64
44.4075	524.93
44.4219	555.58
44.4363	601.25
44.4508	569.06
44.4652	580.56
44.4797	578.73
44.4941	602.38
44.5085	555.25
44.5230	558.79
44.5374	578.80
44.5519	550.51
44.5663	524.34
44.5807	557.13
44.5952	560.19
44.6096	595.59
44.6241	570.01
44.6385	579.63
44.6529	576.96
44.6674	581.31
44.6818	583.94
44.6963	597.78
44.7107	660.36
44.7251	659.45
44.7396	694.52
44.7540	822.00
44.7685	823.89
44.7829	849.87
44.7973	846.33
44.8118	832.91
44.8262	803.54
44.8407	765.90
44.8551	732.88
44.8695	690.92
44.8840	710.16
44.8984	716.62
44.9129	676.32
44.9273	610.62
44.9417	641.09
44.9562	582.16
44.9706	563.16
44.9851	553.07
44.9995	532.29
45.0139	528.04
45.0284	534.76
45.0428	535.23
45.0573	514.64
45.0717	512.23
45.0861	508.45
45.1006	526.47
45.1150	549.92
45.1295	535.79
45.1439	491.41
45.1583	533.91
45.1728	494.35
45.1872	510.12
45.2017	528.00
45.2161	551.46
45.2305	541.10
45.2450	491.86
45.2594	455.56
45.2739	475.10
45.2883	520.18
45.3028	491.27
45.3172	498.13
45.3316	520.63
45.3461	511.79
45.3605	506.13
45.3750	504.63
45.3894	520.84
45.4038	514.05
45.4183	534.12
45.4327	508.22
45.4472	477.54
45.4616	492.51
45.4760	503.80
45.4905	485.65
45.5049	476.40
45.5194	463.14
45.5338	503.83
45.5482	493.56
45.5627	495.83
45.5771	465.64
45.5916	464.25
45.6060	479.43
45.6204	492.57
45.6349	511.07
45.6493	525.35
45.6638	522.72
45.6782	513.14
45.6926	497.81
45.7071	505.22
45.7215	482.32
45.7360	477.63
45.7504	509.91
45.7648	500.82
45.7793	539.50
45.7937	492.80
45.8082	488.83
45.8226	505.03
45.8370	496.69
45.8515	494.95
45.8659	512.00
45.8804	485.67
45.8948	503.07
45.9092	508.45
45.9237	508.66
45.9381	517.74
45.9526	532.76
45.9670	499.92
45.9814	475.36
45.9959	481.14
46.0103	517.24
46.0248	502.48
46.0392	504.80
46.0536	481.65
46.0681	493.09
46.0825	499.16
46.0970	492.01
46.1114	487.77
46.1258	507.78
46.1403	479.65
46.1547	497.02
46.1692	497.42
46.1836	521.55
46.1980	492.18
46.2125	500.38
46.2269	524.96
46.2414	498.87
46.2558	450.55
46.2702	466.35
46.2847	522.13
46.2991	508.40
46.3136	480.21
46.3280	490.19
46.3424	509.99
46.3569	503.05
46.3713	488.70
46.3858	500.49
46.4002	471.21
46.4146	477.70
46.4291	506.83
46.4435	479.91
46.4580	486.25
46.4724	530.16
46.4868	520.68
46.5013	512.56
46.5157	517.07
46.5302	529.93
46.5446	502.99
46.5590	521.40
46.5735	522.63
46.5879	495.32
46.6024	498.43
46.6168	502.48
46.6312	521.87
46.6457	513.63
46.6601	487.64
46.6746	490.40
46.6890	492.69
46.7034	545.27
46.7179	520.16
46.7323	512.33
46.7468	501.36
46.7612	504.33
46.7756	474.45
46.7901	437.73
46.8045	512.79
46.8190	531.13
46.8334	494.18
46.8478	512.33
46.8623	499.83
46.8767	506.66
46.8912	458.86
46.9056	516.73
46.9200	511.73
46.9345	510.76
46.9489	507.43
46.9634	477.29
46.9778	476.48
46.9922	523.27
47.0067	529.88
47.0211	506.58
47.0356	489.35
47.0500	492.17
47.0644	500.18
47.0789	500.39
47.0933	514.61
47.1078	529.09
47.1222	505.09
47.1366	481.57
47.1511	470.87
47.1655	491.85
47.1800	501.71
47.1944	515.01
47.2088	479.65
47.2233	484.07
47.2377	519.73
47.2522	514.27
47.2666	477.12
47.2810	500.81
47.2955	495.58
47.3099	473.35
47.3244	481.31
47.3388	494.46
47.3532	509.61
47.3677	502.14
47.3821	497.48
47.3966	495.92
47.4110	487.07
47.4254	537.08
47.4399	514.58
47.4543	517.16
47.4688	546.36
47.4832	500.55
47.4976	456.42
47.5121	497.45
47.5265	512.02
47.5410	485.46
47.5554	483.46
47.5698	510.11
47.5843	504.07
47.5987	509.07
47.6132	516.84
47.6276	526.73
47.6420	497.11
47.6565	532.63
47.6709	517.79
47.6854	506.30
47.6998	537.44
47.7142	526.96
47.7287	491.30
47.7431	518.19
47.7576	510.36
47.7720	495.53
47.7864	539.23
47.8009	475.10
47.8153	494.72
47.8298	510.23
47.8442	534.95
47.8586	524.84
47.8731	470.88
47.8875	481.23
47.9020	503.58
47.9164	508.15
47.9308	483.13
47.9453	474.15
47.9597	482.12
47.9742	506.80
47.9886	496.00
48.0030	530.19
48.0175	498.30
48.0319	484.15
48.0464	522.00
48.0608	540.55
48.0752	498.31
48.0897	499.74
48.1041	465.41
48.1186	493.90
48.1330	479.74
48.1474	517.93
48.1619	550.56
48.1763	496.76
48.1908	515.42
48.2052	472.27
48.2196	508.70
48.2341	475.01
48.2485	531.38
48.2630	499.72
48.2774	535.80
48.2918	517.62
48.3063	493.00
48.3207	532.89
48.3352	517.71
48.3496	513.69
48.3640	491.63
48.3785	501.33
48.3929	505.55
48.4074	491.47
48.4218	524.77
48.4362	491.54
48.4507	478.06
48.4651	525.00
48.4796	514.16
48.4940	495.35
48.5084	481.92
48.5229	490.71
48.5373	491.75
48.5518	504.37
48.5662	513.93
48.5806	551.34
48.5951	525.66
48.6095	508.63
48.6240	527.09
48.6384	519.52
48.6528	512.02
48.6673	496.40
48.6817	459.81
48.6962	512.03
48.7106	530.68
48.7250	503.91
48.7395	531.48
48.7539	530.72
48.7684	501.00
48.7828	528.96
48.7972	542.61
48.8117	544.13
48.8261	524.06
48.8406	532.52
48.8550	526.66
48.8694	548.41
48.8839	512.95
48.8983	587.34
48.9128	588.09
48.9272	539.26
48.9416	569.34
48.9561	569.01
48.9705	565.74
48.9850	588.14
48.9994	592.67
49.0139	575.94
49.0283	592.92
49.0427	569.93
49.0572	691.48
49.0716	656.36
49.0861	653.45
49.1005	696.27
49.1149	738.43
49.1294	780.66
49.1438	766.59
49.1583	770.85
49.1727	876.54
49.1871	904.09
49.2016	1019.56
49.2160	1107.79
49.2305	1152.23
49.2449	1234.58
49.2593	1280.69
49.2738	1405.36
49.2882	1479.15
49.3027	1566.80
49.3171	1704.05
49.3315	1775.07
49.3460	1877.13
49.3604	1866.02
49.3749	1772.75
49.3893	1724.82
49.4037	1728.58
49.4182	1790.35
49.4326	1778.51
49.4471	1666.28
49.4615	1573.61
49.4759	1609.30
49.4904	1508.40
49.5048	1427.77
49.5193	1328.11
49.5337	1304.51
49.5481	1232.82
49.5626	1077.14
49.5770	1023.59
49.5915	977.42
49.6059	926.38
49.6203	846.99
49.6348	801.40
49.6492	756.77
49.6637	730.81
49.6781	726.85
49.6925	674.39
49.7070	619.34
49.7214	617.73
49.7359	621.55
49.7503	651.05
49.7647	581.39
49.7792	547.32
49.7936	572.07
49.8081	574.63
49.8225	566.73
49.8369	548.61
49.8514	539.41
49.8658	590.95
49.8803	573.89
49.8947	568.86
49.9091	536.85
49.9236	567.99
49.9380	526.19
49.9525	524.88
49.9669	520.26
49.9813	539.05
49.9958	552.52
50.0102	561.38
50.0247	551.02
50.0391	542.31
50.0535	516.53
50.0680	505.18
50.0824	517.77
50.0969	513.09
50.1113	532.24
50.1257	544.80
50.1402	500.06
50.1546	499.51
50.1691	487.58
50.1835	522.38
50.1979	475.27
50.2124	479.73
50.2268	530.95
50.2413	538.54
50.2557	513.11
50.2701	518.54
50.2846	543.42
50.2990	529.60
50.3135	515.43
50.3279	509.45
50.3423	528.86
50.3568	507.83
50.3712	510.57
50.3857	494.09
50.4001	494.30
50.4145	528.97
50.4290	543.97
50.4434	512.65
50.4579	523.81
50.4723	529.30
50.4867	510.80
50.5012	537.57
50.5156	516.16
50.5301	512.29
50.5445	516.56
50.5589	514.82
50.5734	497.37
50.5878	471.23
50.6023	485.42
50.6167	505.23
50.6311	517.83
50.6456	522.58
50.6600	518.94
50.6745	494.73
50.6889	477.51
50.7033	519.35
50.7178	529.74
50.7322	531.98
50.7467	525.29
50.7611	488.93
50.7755	518.61
50.7900	501.11
50.8044	507.20
50.8189	537.78
50.8333	490.84
50.8477	511.66
50.8622	488.57
50.8766	499.02
50.8911	515.48
50.9055	528.32
50.9199	480.37
50.9344	483.10
50.9488	502.43
50.9633	518.32
50.9777	505.58
50.9921	506.86
51.0066	476.98
51.0210	506.54
51.0355	528.65
51.0499	536.96
51.0643	515.67
51.0788	527.15
51.0932	534.57
51.1077	525.74
51.1221	561.32
51.1365	535.27
51.1510	483.38
51.1654	488.90
51.1799	532.12
51.1943	517.25
51.2087	494.80
51.2232	498.56
51.2376	491.32
51.2521	482.80
51.2665	503.68
51.2809	501.73
51.2954	508.45
51.3098	510.65
51.3243	530.54
51.3387	511.38
51.3531	521.66
51.3676	517.53
51.3820	502.68
51.3965	560.64
51.4109	516.58
51.4253	526.40
51.4398	528.88
51.4542	529.62
51.4687	502.38
51.4831	541.78
51.4975	499.81
51.5120	531.02
51.5264	501.68
51.5409	475.55
51.5553	526.06
51.5697	499.21
51.5842	504.44
51.5986	512.33
51.6131	512.93
51.6275	491.57
51.6419	489.42
51.6564	501.52
51.6708	485.12
51.6853	478.26
51.6997	523.65
51.7141	537.64
51.7286	491.56
51.7430	497.20
51.7575	502.91
51.7719	505.78
51.7863	510.84
51.8008	487.29
51.8152	479.34
51.8297	528.83
51.8441	538.17
51.8585	494.90
51.8730	510.30
51.8874	488.71
51.9019	531.32
51.9163	520.04
51.9307	484.84
51.9452	521.46
51.9596	483.91
51.9741	533.90
51.9885	509.15
52.0029	509.17
52.0174	503.01
52.0318	516.57
52.0463	505.35
52.0607	532.33
52.0751	535.81
52.0896	548.98
52.1040	506.74
52.1185	493.71
52.1329	530.57
52.1473	496.74
52.1618	542.14
52.1762	533.25
52.1907	502.86
52.2051	500.46
52.2195	502.98
52.2340	506.16
52.2484	505.59
52.2629	506.95
52.2773	503.78
52.2917	490.38
52.3062	484.43
52.3206	498.37
52.3351	532.66
52.3495	498.24
52.3639	487.68
52.3784	490.71
52.3928	482.31
52.4073	504.29
52.4217	511.97
52.4361	528.98
52.4506	492.97
52.4650	542.51
52.4795	509.71
52.4939	501.12
52.5083	541.91
52.5228	506.03
52.5372	519.36
52.5517	551.53
52.5661	510.50
52.5805	502.09
52.5950	503.11
52.6094	489.36
52.6239	520.93
52.6383	528.72
52.6527	504.14
52.6672	484.63
52.6816	469.68
52.6961	502.76
52.7105	468.52
52.7250	499.69
52.7394	498.31
52.7538	536.54
52.7683	522.64
52.7827	530.95
52.7972	516.03
52.8116	534.13
52.8260	534.37
52.8405	490.22
52.8549	500.55
52.8694	497.43
52.8838	515.04
52.8982	504.85
52.9127	524.19
52.9271	495.30
52.9416	515.82
52.9560	522.92
52.9704	493.42
52.9849	492.98
52.9993	507.29
53.0138	478.00
53.0282	519.63
53.0426	498.01
53.0571	516.87
53.0715	526.65
53.0860	492.34
53.1004	486.16
53.1148	501.57
53.1293	542.20
53.1437	512.48
53.1582	517.18
53.1726	520.58
53.1870	500.52
53.2015	496.29
53.2159	520.83
53.2304	482.26
53.2448	513.76
53.2592	507.39
53.2737	498.81
53.2881	517.76
53.3026	517.22
53.3170	508.62
53.3314	519.68
53.3459	505.32
53.3603	499.71
53.3748	509.50
53.3892	519.50
53.4036	514.52
53.4181	551.08
53.4325	574.76
53.4470	483.32
53.4614	516.15
53.4758	516.73
53.4903	520.74
53.5047	502.89
53.5192	503.36
53.5336	530.37
53.5480	541.80
53.5625	507.58
53.5769	514.08
53.5914	513.67
53.6058	503.50
53.6202	493.98
53.6347	523.30
53.6491	522.10
53.6636	510.51
53.6780	492.38
53.6924	506.89
53.7069	527.60
53.7213	508.73
53.7358	505.41
53.7502	521.30
53.7646	528.63
53.7791	502.10
53.7935	521.21
53.8080	521.00
53.8224	525.53
53.8368	545.95
53.8513	542.45
53.8657	514.99
53.8802	509.60
53.8946	527.86
53.9090	491.22
53.9235	487.69
53.9379	500.45
53.9524	531.66
53.9668	532.34
53.9812	525.22
53.9957	550.90
54.0101	470.89
54.0246	534.90
54.0390	543.49
54.0534	515.06
54.0679	554.09
54.0823	564.41
54.0968	531.07
54.1112	519.27
54.1256	550.68
54.1401	534.21
54.1545	530.21
54.1690	531.59
54.1834	556.96
54.1978	537.06
54.2123	548.01
54.2267	603.22
54.2412	636.36
54.2556	628.67
54.2700	627.15
54.2845	622.64
54.2989	626.56
54.3134	626.42
54.3278	622.21
54.3422	601.37
54.3567	600.11
54.3711	592.02
54.3856	607.96
54.4000	588.64
54.4144	598.04
54.4289	637.88
54.4433	615.29
54.4578	596.80
54.4722	566.71
54.4866	550.92
54.5011	540.91
54.5155	557.55
54.5300	550.04
54.5444	572.56
54.5588	532.56
54.5733	541.17
54.5877	536.80
54.6022	520.24
54.6166	531.34
54.6310	512.50
54.6455	476.21
54.6599	521.51
54.6744	539.44
54.6888	521.66
54.7032	539.57
54.7177	514.47
54.7321	492.42
54.7466	532.44
54.7610	492.83
54.7754	515.06
54.7899	504.50
54.8043	478.85
54.8188	519.79
54.8332	508.70
54.8476	515.87
54.8621	526.50
54.8765	553.11
54.8910	513.32
54.9054	519.55
54.9198	481.54
54.9343	520.94
54.9487	496.06
54.9632	518.48
54.9776	513.98
54.9920	511.92
55.0065	509.19
55.0209	535.67
55.0354	521.62
55.0498	509.82
55.0642	517.01
55.0787	502.17
55.0931	509.69
55.1076	513.45
55.1220	527.04
55.1364	484.02
55.1509	493.26
55.1653	532.39
55.1798	546.32
55.1942	525.77
55.2086	524.13
55.2231	508.63
55.2375	519.91
55.2520	493.58
55.2664	504.86
55.2808	542.20
55.2953	527.23
55.3097	502.07
55.3242	522.47
55.3386	507.93
55.3530	498.07
55.3675	498.91
55.3819	530.56
55.3964	480.46
55.4108	514.60
55.4252	563.85
55.4397	552.22
55.4541	540.90
55.4686	538.96
55.4830	513.97
55.4974	491.25
55.5119	480.58
55.5263	522.16
55.5408	525.02
55.5552	521.74
55.5696	511.69
55.5841	498.71
55.5985	508.09
55.6130	490.94
55.6274	495.85
55.6418	525.24
55.6563	508.71
55.6707	514.88
55.6852	525.34
55.6996	554.91
55.7140	507.70
55.7285	471.80
55.7429	477.38
55.7574	527.26
55.7718	536.67
55.7862	563.28
55.8007	552.53
55.8151	514.87
55.8296	496.60
55.8440	526.59
55.8584	505.51
55.8729	515.42
55.8873	523.19
55.9018	542.46
55.9162	532.06
55.9306	554.04
55.9451	556.74
55.9595	504.14
55.9740	481.36
55.9884	518.66
56.0028	544.28
56.0173	515.05
56.0317	525.74
56.0462	504.10
56.0606	504.08
56.0750	500.25
56.0895	527.92
56.1039	523.77
56.1184	541.66
56.1328	540.76
56.1472	498.09
56.1617	546.51
56.1761	549.07
56.1906	498.40
56.2050	509.83
56.2194	527.47
56.2339	546.97
56.2483	529.72
56.2628	495.24
56.2772	529.85
56.2916	503.53
56.3061	511.13
56.3205	524.69
56.3350	519.83
56.3494	538.00
56.3639	543.15
56.3783	550.77
56.3927	507.07
56.4072	515.11
56.4216	556.90
56.4361	520.79
56.4505	505.95
56.4649	508.17
56.4794	513.85
56.4938	496.30
56.5083	480.94
56.5227	456.57
56.5371	505.95
56.5516	561.37
56.5660	525.70
56.5805	528.32
56.5949	516.89
56.6093	501.84
56.6238	507.10
56.6382	507.73
56.6527	514.90
56.6671	486.73
56.6815	510.17
56.6960	483.07
56.7104	522.67
56.7249	510.56
56.7393	534.32
56.7537	535.95
56.7682	480.43
56.7826	516.20
56.7971	538.33
56.8115	533.27
56.8259	525.45
56.8404	510.62
56.8548	523.89
56.8693	495.74
56.8837	482.41
56.8981	571.36
56.9126	557.08
56.9270	543.98
56.9415	520.25
56.9559	494.48
56.9703	517.69
56.9848	499.64
56.9992	530.17
57.0137	502.62
57.0281	495.39
57.0425	504.36
57.0570	568.17
57.0714	507.06
57.0859	547.46
57.1003	522.90
57.1147	513.03
57.1292	550.25
57.1436	534.12
57.1581	538.69
57.1725	503.07
57.1869	519.69
57.2014	533.56
57.2158	526.84
57.2303	497.33
57.2447	484.12
57.2591	499.24
57.2736	517.03
57.2880	510.37
57.3025	510.15
57.3169	548.90
57.3313	555.26
57.3458	541.85
57.3602	520.55
57.3747	527.46
57.3891	520.82
57.4035	520.79
57.4180	531.85
57.4324	509.22
57.4469	500.34
57.4613	531.58
57.4757	541.44
57.4902	491.69
57.5046	478.84
57.5191	514.09
57.5335	517.11
57.5479	486.26
57.5624	528.39
57.5768	502.66
57.5913	485.13
57.6057	528.22
57.6201	500.29
57.6346	520.55
57.6490	551.68
57.6635	601.40
57.6779	539.20
57.6923	516.03
57.7068	542.43
57.7212	542.90
57.7357	533.77
57.7501	562.90
57.7645	552.78
57.7790	560.52
57.7934	576.66
57.8079	616.76
57.8223	668.00
57.8367	671.21
57.8512	707.82
57.8656	774.68
57.8801	780.16
57.8945	802.32
57.9089	798.10
57.9234	707.70
57.9378	680.67
57.9523	666.74
57.9667	650.03
57.9811	664.87
57.9956	648.36
58.0100	661.88
58.0245	725.15
58.0389	710.72
58.0533	662.15
58.0678	606.04
58.0822	596.93
58.0967	560.32
58.1111	576.16
58.1255	570.53
58.1400	533.13
58.1544	542.58
58.1689	545.15
58.1833	540.04
58.1977	541.88
58.2122	540.87
58.2266	504.94
58.2411	539.93
58.2555	531.39
58.2699	540.08
58.2844	525.30
58.2988	533.38
58.3133	558.38
58.3277	563.19
58.3421	566.16
58.3566	544.17
58.3710	521.18
58.3855	517.07
58.3999	497.21
58.4143	513.75
58.4288	536.24
58.4432	529.48
58.4577	522.60
58.4721	543.67
58.4865	550.87
58.5010	508.05
58.5154	524.99
58.5299	534.39
58.5443	509.95
58.5587	526.33
58.5732	523.03
58.5876	524.80
58.6021	518.00
58.6165	522.99
58.6309	540.46
58.6454	505.59
58.6598	529.24
58.6743	514.74
58.6887	522.60
58.7031	535.16
58.7176	500.13
58.7320	529.44
58.7465	528.91
58.7609	505.11
58.7753	529.19
58.7898	500.08
58.8042	525.39
58.8187	534.00
58.8331	514.07
58.8475	529.67
58.8620	547.47
58.8764	524.84
58.8909	519.96
58.9053	551.81
58.9197	534.66
58.9342	508.92
58.9486	478.00
58.9631	499.99
58.9775	532.34
58.9919	533.55
59.0064	542.52
59.0208	537.56
59.0353	524.78
59.0497	509.63
59.0641	502.12
59.0786	508.78
59.0930	521.11
59.1075	534.65
59.1219	531.32
59.1363	498.07
59.1508	515.09
59.1652	521.91
59.1797	526.57
59.1941	520.23
59.2085	525.22
59.2230	519.86
59.2374	549.47
59.2519	541.56
59.2663	543.02
59.2807	552.26
59.2952	543.15
59.3096	524.18
59.3241	550.54
59.3385	562.43
59.3529	528.67
59.3674	554.99
59.3818	577.83
59.3963	536.76
59.4107	519.68
59.4251	553.54
59.4396	580.87
59.4540	511.62
59.4685	560.33
59.4829	560.55
59.4973	557.94
59.5118	544.57
59.5262	528.90
59.5407	528.12
59.5551	576.27
59.5695	591.94
59.5840	570.43
59.5984	562.24
59.6129	542.91
59.6273	526.77
59.6417	554.21
59.6562	545.76
59.6706	529.90
59.6851	540.11
59.6995	532.15
59.7139	550.58
59.7284	541.15
59.7428	535.02
59.7573	551.08
59.7717	558.44
59.7861	530.58
59.8006	505.61
59.8150	547.71
59.8295	530.46
59.8439	513.62
59.8583	530.76
59.8728	536.19
59.8872	546.31
59.9017	541.94
59.9161	559.07
59.9305	574.03
59.9450	543.52
59.9594	498.23
59.9739	535.85
59.9883	549.41
60.0027	532.33
60.0172	543.77
60.0316	520.55
60.0461	506.44
60.0605	555.58
60.0750	521.86
60.0894	523.14
60.1038	523.46
60.1183	552.89
60.1327	540.12
60.1472	521.23
60.1616	515.82
60.1760	545.91
60.1905	497.93
60.2049	512.54
60.2194	539.56
60.2338	578.62
60.2482	549.35
60.2627	528.17
60.2771	567.69
60.2916	562.66
60.3060	510.82
60.3204	516.47
60.3349	520.12
60.3493	531.56
60.3638	538.84
60.3782	519.83
60.3926	542.84
60.4071	504.30
60.4215	523.30
60.4360	525.45
60.4504	503.06
60.4648	564.79
60.4793	530.62
60.4937	528.51
60.5082	500.05
60.5226	505.18
60.5370	523.54
60.5515	525.67
60.5659	528.52
60.5804	539.12
60.5948	505.22
60.6092	516.13
60.6237	536.80
60.6381	545.00
60.6526	519.48
60.6670	548.73
60.6814	528.80
60.6959	521.86
60.7103	549.07
60.7248	543.30
60.7392	521.05
60.7536	514.92
60.7681	511.74
60.7825	529.12
60.7970	515.22
60.8114	562.64
60.8258	538.79
60.8403	519.24
60.8547	571.07
60.8692	530.40
60.8836	530.98
60.8980	541.95
60.9125	552.12
60.9269	520.97
60.9414	536.33
60.9558	524.68
60.9702	505.42
60.9847	526.41
60.9991	534.67
61.0136	548.00
61.0280	540.63
61.0424	493.29
61.0569	537.55
61.0713	551.49
61.0858	546.70
61.1002	546.45
61.1146	591.95
61.1291	541.67
61.1435	515.81
61.1580	538.02
61.1724	552.95
61.1868	544.80
61.2013	513.22
61.2157	533.66
61.2302	565.78
61.2446	529.06
61.2590	501.01
61.2735	515.27
61.2879	541.40
61.3024	542.26
61.3168	526.91
61.3312	552.21
61.3457	537.84
61.3601	536.99
61.3746	538.64
61.3890	556.68
61.4034	536.90
61.4179	532.26
61.4323	621.52
61.4468	529.82
61.4612	520.64
61.4756	559.05
61.4901	547.91
61.5045	505.22
61.5190	508.33
61.5334	551.21
61.5478	521.65
61.5623	541.41
61.5767	530.49
61.5912	542.97
61.6056	515.90
61.6200	531.45
61.6345	557.49
61.6489	513.43
61.6634	531.21
61.6778	522.91
61.6922	531.82
61.7067	535.25
61.7211	536.34
61.7356	510.25
61.7500	537.33
61.7644	525.80
61.7789	553.47
61.7933	501.02
61.8078	510.30
61.8222	511.27
61.8366	510.28
61.8511	553.73
61.8655	542.97
61.8800	544.46
61.8944	535.66
61.9088	559.45
61.9233	544.65
61.9377	557.83
61.9522	524.44
61.9666	492.35
61.9810	550.33
61.9955	538.40
62.0099	521.34
62.0244	537.07
62.0388	546.74
62.0532	563.65
62.0677	536.53
62.0821	519.45
62.0966	553.75
62.1110	540.20
62.1254	574.26
62.1399	528.89
62.1543	496.84
62.1688	546.43
62.1832	525.72
62.1976	536.83
62.2121	543.68
62.2265	553.89
62.2410	584.99
62.2554	555.86
62.2698	533.89
62.2843	531.80
62.2987	557.48
62.3132	581.97
62.3276	541.96
62.3420	529.86
62.3565	552.80
62.3709	550.52
62.3854	540.85
62.3998	554.84
62.4142	544.03
62.4287	556.92
62.4431	540.48
62.4576	552.30
62.4720	593.12
62.4864	576.00
62.5009	560.76
62.5153	564.92
62.5298	559.58
62.5442	523.90
62.5586	549.40
62.5731	536.58
62.5875	555.40
62.6020	554.20
62.6164	519.74
62.6308	513.58
62.6453	534.96
62.6597	547.39
62.6742	540.73
62.6886	511.57
62.7030	585.64
62.7175	568.68
62.7319	540.39
62.7464	525.28
62.7608	527.98
62.7752	535.71
62.7897	528.28
62.8041	541.33
62.8186	546.13
62.8330	583.36
62.8474	561.80
62.8619	589.43
62.8763	578.95
62.8908	538.75
62.9052	554.31
62.9196	537.02
62.9341	540.49
62.9485	595.61
62.9630	549.64
62.9774	565.05
62.9918	566.07
63.0063	543.52
63.0207	550.03
63.0352	569.90
63.0496	562.73
63.0640	582.15
63.0785	557.72
63.0929	557.65
63.1074	566.36
63.1218	563.07
63.1362	581.62
63.1507	563.58
63.1651	586.88
63.1796	578.30
63.1940	586.11
63.2084	573.21
63.2229	582.73
63.2373	574.78
63.2518	588.51
63.2662	566.77
63.2806	580.09
63.2951	573.84
63.3095	576.87
63.3240	596.12
63.3384	595.53
63.3528	608.14
63.3673	620.25
63.3817	610.95
63.3962	597.60
63.4106	617.50
63.4250	665.00
63.4395	701.48
63.4539	661.61
63.4684	713.43
63.4828	755.72
63.4972	754.82
63.5117	763.58
63.5261	847.45
63.5406	893.03
63.5550	933.36
63.5694	939.41
63.5839	924.58
63.5983	926.78
63.6128	910.16
63.6272	817.14
63.6416	819.17
63.6561	756.16
63.6705	762.06
63.6850	747.94
63.6994	776.26
63.7138	861.17
63.7283	803.49
63.7427	811.28
63.7572	829.96
63.7716	773.56
63.7861	764.70
63.8005	715.99
63.8149	695.45
63.8294	674.58
63.8438	665.84
63.8583	657.70
63.8727	616.82
63.8871	586.07
63.9016	612.62
63.9160	625.79
63.9305	623.04
63.9449	612.31
63.9593	607.26
63.9738	585.87
63.9882	616.28
64.0027	619.50
64.0171	599.03
64.0315	629.91
64.0460	608.10
64.0604	582.38
64.0749	579.37
64.0893	607.33
64.1037	621.61
64.1182	593.96
64.1326	611.53
64.1471	575.68
64.1615	583.32
64.1759	621.64
64.1904	629.23
64.2048	607.85
64.2193	563.88
64.2337	560.72
64.2481	620.90
64.2626	597.04
64.2770	614.90
64.2915	576.02
64.3059	538.61
64.3203	591.58
64.3348	592.49
64.3492	598.89
64.3637	609.91
64.3781	590.02
64.3925	596.59
64.4070	606.49
64.4214	622.78
64.4359	624.77
64.4503	614.32
64.4647	585.35
64.4792	617.41
64.4936	664.94
64.5081	606.47
64.5225	578.15
64.5369	608.78
64.5514	621.27
64.5658	646.93
64.5803	633.90
64.5947	562.37
64.6091	601.94
64.6236	659.28
64.6380	640.35
64.6525	676.28
64.6669	671.64
64.6813	653.42
64.6958	587.76
64.7102	696.14
64.7247	679.10
64.7391	661.01
64.7535	687.61
64.7680	697.56
64.7824	731.33
64.7969	691.86
64.8113	746.38
64.8257	790.69
64.8402	842.14
64.8546	860.82
64.8691	823.01
64.8835	810.83
64.8979	828.13
64.9124	839.78
64.9268	888.04
64.9413	878.43
64.9557	912.86
64.9701	929.84
64.9846	1041.63
64.9990	1111.15
65.0135	1237.98
65.0279	1408.21
65.0423	1620.48
65.0568	2046.94
65.0712	2493.53
65.0857	3286.64
65.1001	4226.56
65.1145	5765.30
65.1290	7641.37
65.1434	9094.13
65.1579	10651.87
65.1723	11510.90
65.1867	10929.49
65.2012	9929.00
65.2156	8374.89
65.2301	6523.02
65.2445	5270.46
65.2589	4479.75
65.2734	4165.26
65.2878	4231.43
65.3023	4723.25
65.3167	5503.90
65.3311	6416.99
65.3456	6906.67
65.3600	6764.94
65.3745	6258.85
65.3889	5468.71
65.4033	4480.83
65.4178	3518.83
65.4322	2764.00
65.4467	2077.96
65.4611	1736.34
65.4755	1482.18
65.4900	1221.92
65.5044	1134.71
65.5189	1031.39
65.5333	965.72
65.5477	916.43
65.5622	905.48
65.5766	841.58
65.5911	815.13
65.6055	807.48
65.6199	778.36
65.6344	781.81
65.6488	762.12
65.6633	728.45
65.6777	705.66
65.6921	705.07
65.7066	710.46
65.7210	721.81
65.7355	679.22
65.7499	699.85
65.7643	684.28
65.7788	661.44
65.7932	657.17
65.8077	709.81
65.8221	663.73
65.8365	625.57
65.8510	611.70
65.8654	642.38
65.8799	640.65
65.8943	654.02
65.9087	631.13
65.9232	626.22
65.9376	588.39
65.9521	586.47
65.9665	647.27
65.9809	633.88
65.9954	652.76
66.0098	578.94
66.0243	641.19
66.0387	610.87
66.0531	625.15
66.0676	615.35
66.0820	620.47
66.0965	673.55
66.1109	611.04
66.1253	649.13
66.1398	591.95
66.1542	608.04
66.1687	646.16
66.1831	628.37
66.1975	611.02
66.2120	614.41
66.2264	609.43
66.2409	585.55
66.2553	601.64
66.2697	584.54
66.2842	581.68
66.2986	594.65
66.3131	605.79
66.3275	596.04
66.3419	581.69
66.3564	603.97
66.3708	557.04
66.3853	592.02
66.3997	586.18
66.4141	615.09
66.4286	636.30
66.4430	594.33
66.4575	596.90
66.4719	612.75
66.4863	555.42
66.5008	567.40
66.5152	554.05
66.5297	552.39
66.5441	580.68
66.5585	608.75
66.5730	644.93
66.5874	633.33
66.6019	571.85
66.6163	585.09
66.6307	584.56
66.6452	598.20
66.6596	604.66
66.6741	615.64
66.6885	612.38
66.7029	614.80
66.7174	583.67
66.7318	581.47
66.7463	572.68
66.7607	570.33
66.7751	594.48
66.7896	598.10
66.8040	623.02
66.8185	597.12
66.8329	546.74
66.8473	572.20
66.8618	618.50
66.8762	603.31
66.8907	611.14
66.9051	614.95
66.9195	563.57
66.9340	570.51
66.9484	585.77
66.9629	574.70
66.9773	593.16
66.9917	573.03
67.0062	549.16
67.0206	562.13
67.0351	557.68
67.0495	546.89
67.0639	576.58
67.0784	570.71
67.0928	576.17
67.1073	593.82
67.1217	603.30
67.1361	598.64
67.1506	583.29
67.1650	590.73
67.1795	619.67
67.1939	589.47
67.2083	588.89
67.2228	614.36
67.2372	584.50
67.2517	585.21
67.2661	568.94
67.2805	598.16
67.2950	575.73
67.3094	588.01
67.3239	575.85
67.3383	582.76
67.3527	578.15
67.3672	561.22
67.3816	557.31
67.3961	585.48
67.4105	516.90
67.4250	596.11
67.4394	612.08
67.4538	574.48
67.4683	591.37
67.4827	574.85
67.4972	568.95
67.5116	594.50
67.5260	591.74
67.5405	559.05
67.5549	594.99
67.5694	564.96
67.5838	551.93
67.5982	570.81
67.6127	591.76
67.6271	601.47
67.6416	596.51
67.6560	542.35
67.6704	563.01
67.6849	572.60
67.6993	593.33
67.7138	582.33
67.7282	553.86
67.7426	553.71
67.7571	575.34
67.7715	560.58
67.7860	588.00
67.8004	577.67
67.8148	553.78
67.8293	567.51
67.8437	582.14
67.8582	559.23
67.8726	598.20
67.8870	583.63
67.9015	594.64
67.9159	542.98
67.9304	589.58
67.9448	574.61
67.9592	583.63
67.9737	545.98
67.9881	599.52
68.0026	564.68
68.0170	607.60
68.0314	579.84
68.0459	597.20
68.0603	575.43
68.0748	600.17
68.0892	567.36
68.1036	559.89
68.1181	549.91
68.1325	566.78
68.1470	516.31
68.1614	550.30
68.1758	550.03
68.1903	567.39
68.2047	593.25
68.2192	569.48
68.2336	560.27
68.2480	593.44
68.2625	530.25
68.2769	502.88
68.2914	589.31
68.3058	583.24
68.3202	542.86
68.3347	573.54
68.3491	621.11
68.3636	557.87
68.3780	560.35
68.3924	538.23
68.4069	523.40
68.4213	565.49
68.4358	556.02
68.4502	564.00
68.4646	573.78
68.4791	561.05
68.4935	577.15
68.5080	612.19
68.5224	596.10
68.5368	629.70
68.5513	598.58
68.5657	562.71
68.5802	560.00
68.5946	614.14
68.6090	540.34
68.6235	545.59
68.6379	572.71
68.6524	571.54
68.6668	547.70
68.6812	544.26
68.6957	570.46
68.7101	569.95
68.7246	576.77
68.7390	594.06
68.7534	536.11
68.7679	553.30
68.7823	551.05
68.7968	578.75
68.8112	576.90
68.8256	588.69
68.8401	607.48
68.8545	585.27
68.8690	564.87
68.8834	579.61
68.8978	582.63
68.9123	593.64
68.9267	597.83
68.9412	575.71
68.9556	564.82
68.9700	560.54
68.9845	544.47
68.9989	564.39
69.0134	579.26
69.0278	574.73
69.0422	562.76
69.0567	593.78
69.0711	588.20
69.0856	607.13
69.1000	558.91
69.1144	574.20
69.1289	576.92
69.1433	552.61
69.1578	566.46
69.1722	556.13
69.1866	585.03
69.2011	560.28
69.2155	618.77
69.2300	603.45
69.2444	568.36
69.2588	562.58
69.2733	546.65
69.2877	580.65
69.3022	576.97
69.3166	574.37
69.3310	623.66
69.3455	597.36
69.3599	559.32
69.3744	577.31
69.3888	574.25
69.4032	572.96
69.4177	568.01
69.4321	592.38
69.4466	594.24
69.4610	533.70
69.4754	553.88
69.4899	602.30
69.5043	580.38
69.5188	533.24
69.5332	588.79
69.5476	562.00
69.5621	586.44
69.5765	545.72
69.5910	533.23
69.6054	586.30
69.6198	589.94
69.6343	567.97
69.6487	568.30
69.6632	582.39
69.6776	555.73
69.6920	609.39
69.7065	597.59
69.7209	562.00
69.7354	557.80
69.7498	547.82
69.7642	529.53
69.7787	585.45
69.7931	595.89
69.8076	553.92
69.8220	574.10
69.8364	573.63
69.8509	573.25
69.8653	570.36
69.8798	584.26
69.8942	572.56
69.9086	548.24
69.9231	576.08
69.9375	585.72
69.9520	627.46
69.9664	578.71
69.9808	571.12
69.9953	544.03
70.0097	566.53
70.0242	580.39
70.0386	572.92
70.0530	563.24
70.0675	602.34
70.0819	591.85
70.0964	604.14
70.1108	566.21
70.1252	616.69
70.1397	561.19
70.1541	582.06
70.1686	607.71
70.1830	567.50
70.1974	565.65
70.2119	520.54
70.2263	525.38
70.2408	537.69
70.2552	507.69
70.2696	578.85
70.2841	596.60
70.2985	573.93
70.3130	556.78
70.3274	631.96
70.3418	571.50
70.3563	583.65
70.3707	542.24
70.3852	558.51
70.3996	545.01
70.4140	549.80
70.4285	565.02
70.4429	521.16
70.4574	563.26
70.4718	624.09
70.4862	641.93
70.5007	578.09
70.5151	537.12
70.5296	558.31
70.5440	599.62
70.5584	630.02
70.5729	575.32
70.5873	534.62
70.6018	551.09
70.6162	533.78
70.6306	542.54
70.6451	561.77
70.6595	567.68
70.6740	574.37
70.6884	565.89
70.7028	586.99
70.7173	602.28
70.7317	563.86
70.7462	595.18
70.7606	576.01
70.7750	565.82
70.7895	537.36
70.8039	559.07
70.8184	601.43
70.8328	596.90
70.8472	546.19
70.8617	592.85
70.8761	587.74
70.8906	585.07
70.9050	593.11
70.9194	538.07
70.9339	581.59
70.9483	628.28
70.9628	602.64
70.9772	602.00
70.9916	576.27
71.0061	555.31
71.0205	562.38
71.0350	535.21
71.0494	574.46
71.0638	610.25
71.0783	597.98
71.0927	646.07
71.1072	659.88
71.1216	629.44
71.1361	607.80
71.1505	590.69
71.1649	563.54
71.1794	576.48
71.1938	586.39
71.2083	574.25
71.2227	580.81
71.2371	649.49
71.2516	646.51
71.2660	619.72
71.2805	590.01
71.2949	531.75
71.3093	545.00
71.3238	577.97
71.3382	603.89
71.3527	626.57
71.3671	557.46
71.3815	613.94
71.3960	586.50
71.4104	556.29
71.4249	589.51
71.4393	636.39
71.4537	621.35
71.4682	572.34
71.4826	554.88
71.4971	582.66
71.5115	572.15
71.5259	544.40
71.5404	551.70
71.5548	613.18
71.5693	582.98
71.5837	560.28
71.5981	549.45
71.6126	523.41
71.6270	541.53
71.6415	536.70
71.6559	556.59
71.6703	578.27
71.6848	573.45
71.6992	646.18
71.7137	601.11
71.7281	561.65
71.7425	605.87
71.7570	555.78
71.7714	559.26
71.7859	573.45
71.8003	600.38
71.8147	584.98
71.8292	638.57
71.8436	587.50
71.8581	536.07
71.8725	566.43
71.8869	540.60
71.9014	596.63
71.9158	589.59
71.9303	616.00
71.9447	671.91
71.9591	593.51
71.9736	529.18
71.9880	552.09
72.0025	547.15
72.0169	570.13
72.0313	572.75
72.0458	550.30
72.0602	613.50
72.0747	579.06
72.0891	512.31
72.1035	581.27
72.1180	587.13
72.1324	567.23
72.1469	649.78
72.1613	655.19
72.1757	596.77
72.1902	614.83
72.2046	586.09
72.2191	521.40
72.2335	483.04
72.2479	547.23
72.2624	616.63
72.2768	621.84
72.2913	567.36
72.3057	561.84
72.3201	565.68
72.3346	593.01
72.3490	574.08
72.3635	559.57
72.3779	550.34
72.3923	611.51
72.4068	648.54
72.4212	643.06
72.4357	607.52
72.4501	562.79
72.4645	635.91
72.4790	636.97
72.4934	527.80
72.5079	533.99
72.5223	590.63
72.5367	593.88
72.5512	587.57
72.5656	628.43
72.5801	584.63
72.5945	610.68
72.6089	610.86
72.6234	567.38
72.6378	533.20
72.6523	588.76
72.6667	600.78
72.6811	570.64
72.6956	513.61
72.7100	568.09
72.7245	583.54
72.7389	658.49
72.7533	593.91
72.7678	496.98
72.7822	595.56
72.7967	544.67
72.8111	540.14
72.8255	595.75
72.8400	585.31
72.8544	563.36
72.8689	539.29
72.8833	533.79

Result vector
22.1120	628.89
22.1264	571.36
22.1409	519.93
22.1553	511.38
22.1697	563.96
22.1842	583.90
22.1986	561.71
22.2131	507.99
22.2275	586.21
22.2419	572.41
22.2564	570.09
22.2708	574.39
22.2853	624.07
22.2997	524.53
22.3141	570.48
22.3286	560.92
22.3430	569.34
22.3575	563.19
22.3719	544.80
22.3863	548.27
22.4008	547.84
22.4152	514.93
22.4297	600.41
22.4441	635.29
22.4585	608.46
22.4730	550.18
22.4874	522.97
22.5019	559.58
22.5163	661.56
22.5307	550.09
22.5452	564.93
22.5596	507.08
22.5741	569.99
22.5885	619.02
22.6029	626.52
22.6174	541.18
22.6318	560.00
22.6463	537.17
22.6607	605.88
22.6751	617.09
22.6896	561.56
22.7040	597.19
22.7185	552.95
22.7329	591.34
22.7473	514.99
22.7618	516.90
22.7762	484.02
22.7907	582.18
22.8051	562.00
22.8195	558.17
22.8340	608.14
22.8484	579.09
22.8629	514.79
22.8773	531.90
22.8917	532.05
22.9062	598.09
22.9206	556.42
22.9351	560.55
22.9495	602.77
22.9639	504.51
22.9784	560.27
22.9928	617.24
23.0073	563.30
23.0217	599.49
23.0361	581.60
23.0506	521.53
23.0650	574.15
23.0795	631.75
23.0939	573.21
23.1083	586.45
23.1228	583.21
23.1372	613.44
23.1517	544.05
23.1661	533.19
23.1806	541.45
23.1950	490.20
23.2094	488.90
23.2239	558.88
23.2383	541.63
23.2528	556.55
23.2672	565.04
23.2816	570.04
23.2961	535.17
23.3105	530.55
23.3250	537.31
23.3394	593.82
23.3538	604.71
23.3683	566.50
23.3827	517.80
23.3972	494.84
23.4116	481.86
23.4260	556.19
23.4405	490.20
23.4549	541.60
23.4694	576.94
23.4838	673.43
23.4982	562.28
23.5127	541.19
23.5271	590.80
23.5416	480.28
23.5560	611.35
23.5704	622.80
23.5849	562.83
23.5993	622.78
23.6138	600.30
23.6282	562.05
23.6426	520.54
23.6571	542.65
23.6715	531.66
23.6860	543.30
23.7004	550.71
23.7148	564.62
23.7293	566.08
23.7437	590.26
23.7582	490.99
23.7726	529.84
23.7870	579.37
23.8015	566.89
23.8159	549.72
23.8304	575.07
23.8448	540.07
23.8592	565.33
23.8737	573.06
23.8881	524.09
23.9026	604.84
23.9170	532.96
23.9314	463.90
23.9459	503.74
23.9603	643.79
23.9748	603.34
23.9892	563.41
24.0036	545.20
24.0181	582.77
24.0325	511.35
24.0470	543.64
24.0614	503.62
24.0758	527.67
24.0903	624.88
24.1047	472.33
24.1192	577.64
24.1336	534.00
24.1480	544.48
24.1625	531.71
24.1769	560.71
24.1914	586.27
24.2058	563.95
24.2202	607.47
24.2347	636.18
24.2491	567.20
24.2636	613.73
24.2780	606.87
24.2924	589.97
24.3069	587.13
24.3213	591.75
24.3358	579.27
24.3502	536.14
24.3646	569.09
24.3791	556.04
24.3935	536.19
24.4080	554.44
24.4224	562.54
24.4368	556.14
24.4513	509.17
24.4657	557.27
24.4802	550.70
24.4946	562.16
24.5090	551.57
24.5235	527.30
24.5379	526.66
24.5524	541.13
24.5668	534.25
24.5812	538.20
24.5957	533.73
24.6101	531.05
24.6246	553.60
24.6390	523.36
24.6534	566.88
24.6679	532.21
24.6823	570.49
24.6968	540.92
24.7112	581.12
24.7256	545.46
24.7401	543.51
24.7545	525.24
24.7690	523.52
24.7834	561.44
24.7978	532.16
24.8123	553.91
24.8267	543.04
24.8412	527.32
24.8556	508.56
24.8700	591.37
24.8845	633.74
24.8989	523.57
24.9134	553.27
24.9278	474.63
24.9422	545.25
24.9567	452.52
24.9711	529.26
24.9856	541.02
25.0000	509.22
25.0144	505.29
25.0289	585.66
25.0433	555.78
25.0578	553.84
25.0722	535.90
25.0866	581.92
25.1011	532.35
25.1155	537.07
25.1300	583.71
25.1444	556.60
25.1588	540.88
25.1733	598.15
25.1877	596.93
25.2022	535.86
25.2166	515.87
25.2310	542.36
25.2455	551.31
25.2599	551.52
25.2744	501.69
25.2888	538.83
25.3032	536.37
25.3177	530.61
25.3321	525.31
25.3466	517.64
25.3610	528.64
25.3754	509.05
25.3899	505.01
25.4043	535.28
25.4188	511.69
25.4332	541.84
25.4476	539.21
25.4621	511.02
25.4765	571.95
25.4910	550.65
25.5054	558.33
25.5198	542.69
25.5343	536.58
25.5487	524.23
25.5632	510.53
25.5776	509.94
25.5920	533.87
25.6065	539.73
25.6209	521.17
25.6354	540.27
25.6498	512.07
25.6642	554.76
25.6787	535.48
25.6931	521.04
25.7076	528.74
25.7220	574.58
25.7364	585.05
25.7509	538.06
25.7653	542.48
25.7798	534.65
25.7942	587.22
25.8086	540.16
25.8231	517.68
25.8375	557.32
25.8520	553.11
25.8664	577.31
25.8808	544.33
25.8953	566.45
25.9097	546.42
25.9242	500.19
25.9386	498.84
25.9530	518.09
25.9675	521.24
25.9819	557.02
25.9964	557.68
26.0108	565.37
26.0252	536.57
26.0397	529.06
26.0541	507.03
26.0686	503.76
26.0830	527.59
26.0974	538.93
26.1119	516.50
26.1263	526.37
26.1408	514.28
26.1552	548.31
26.1696	543.63
26.1841	531.56
26.1985	540.99
26.2130	572.29
26.2274	544.55
26.2418	561.50
26.2563	534.98
26.2707	553.67
26.2852	556.48
26.2996	531.77
26.3140	477.28
26.3285	515.60
26.3429	534.48
26.3574	524.83
26.3718	533.98
26.3862	503.15
26.4007	514.69
26.4151	535.41
26.4296	519.69
26.4440	515.50
26.4584	532.00
26.4729	523.50
26.4873	536.76
26.5018	547.03
26.5162	497.47
26.5306	548.12
26.5451	546.64
26.5595	562.57
26.5740	518.29
26.5884	531.76
26.6028	499.85
26.6173	510.05
26.6317	546.92
26.6462	523.67
26.6606	505.92
26.6750	489.81
26.6895	513.72
26.7039	530.15
26.7184	533.42
26.7328	502.36
26.7472	544.50
26.7617	532.98
26.7761	515.77
26.7906	491.57
26.8050	519.24
26.8194	514.38
26.8339	520.46
26.8483	534.64
26.8628	553.83
26.8772	531.95
26.8917	512.23
26.9061	518.97
26.9205	532.87
26.9350	543.50
26.9494	550.08
26.9639	522.69
26.9783	500.23
26.9927	492.95
27.0072	502.27
27.0216	516.37
27.0361	518.83
27.0505	512.51
27.0649	518.18
27.0794	526.24
27.0938	551.83
27.1083	534.75
27.1227	534.94
27.1371	533.03
27.1516	495.56
27.1660	510.98
27.1805	533.53
27.1949	523.02
27.2093	521.12
27.2238	509.82
27.2382	505.15
27.2527	527.28
27.2671	491.79
27.2815	523.80
27.2960	543.21
27.3104	550.78
27.3249	563.56
27.3393	557.92
27.3537	552.62
27.3682	507.09
27.3826	522.27
27.3971	507.12
27.4115	535.16
27.4259	528.72
27.4404	497.31
27.4548	493.42
27.4693	519.12
27.4837	521.16
27.4981	527.19
27.5126	525.29
27.5270	533.25
27.5415	524.32
27.5559	527.39
27.5703	524.02
27.5848	515.69
27.5992	512.09
27.6137	512.35
27.6281	499.56
27.6425	527.15
27.6570	506.15
27.6714	516.95
27.6859	516.23
27.7003	526.37
27.7147	527.77
27.7292	526.58
27.7436	516.90
27.7581	505.19
27.7725	486.44
27.7869	517.82
27.8014	495.35
27.8158	509.24
27.8303	491.51
27.8447	515.85
27.8591	525.62
27.8736	564.33
27.8880	505.99
27.9025	540.63
27.9169	522.68
27.9313	516.51
27.9458	501.51
27.9602	495.48
27.9747	541.85
27.9891	549.23
28.0035	523.74
28.0180	524.69
28.0324	525.59
28.0469	509.34
28.0613	499.44
28.0757	516.10
28.0902	515.19
28.1046	519.16
28.1191	530.88
28.1335	517.81
28.1479	512.53
28.1624	523.34
28.1768	541.50
28.1913	512.99
28.2057	472.31
28.2201	529.02
28.2346	519.32
28.2490	506.85
28.2635	468.40
28.2779	525.10
28.2923	502.87
28.3068	518.93
28.3212	523.04
28.3357	541.83
28.3501	514.95
28.3645	521.58
28.3790	527.94
28.3934	499.47
28.4079	526.20
28.4223	543.39
28.4367	502.45
28.4512	510.15
28.4656	501.88
28.4801	533.64
28.4945	514.49
28.5089	502.80
28.5234	490.56
28.5378	482.86
28.5523	506.32
28.5667	509.18
28.5811	509.10
28.5956	510.05
28.6100	501.60
28.6245	515.35
28.6389	528.11
28.6533	500.01
28.6678	491.62
28.6822	507.12
28.6967	503.35
28.7111	547.74
28.7255	508.10
28.7400	501.44
28.7544	536.56
28.7689	501.02
28.7833	518.68
28.7977	515.14
28.8122	509.55
28.8266	524.83
28.8411	523.13
28.8555	532.23
28.8699	534.09
28.8844	524.81
28.8988	524.75
28.9133	520.75
28.9277	497.58
28.9421	532.72
28.9566	522.82
28.9710	521.75
28.9855	509.51
28.9999	532.03
29.0143	503.24
29.0288	536.20
29.0432	537.36
29.0577	505.72
29.0721	490.94
29.0865	502.44
29.1010	526.47
29.1154	512.75
29.1299	510.98
29.1443	477.42
29.1587	486.76
29.1732	521.72
29.1876	502.97
29.2021	510.58
29.2165	512.91
29.2309	524.73
29.2454	527.32
29.2598	481.86
29.2743	491.70
29.2887	505.09
29.3031	518.41
29.3176	540.03
29.3320	519.59
29.3465	491.80
29.3609	492.17
29.3753	485.16
29.3898	507.16
29.4042	505.91
29.4187	502.73
29.4331	529.72
29.4475	470.06
29.4620	503.79
29.4764	524.58
29.4909	541.08
29.5053	506.44
29.5197	496.91
29.5342	525.33
29.5486	499.25
29.5631	494.03
29.5775	493.96
29.5919	537.01
29.6064	514.72
29.6208	520.31
29.6353	503.68
29.6497	514.94
29.6641	500.70
29.6786	550.09
29.6930	537.27
29.7075	534.84
29.7219	509.59
29.7363	541.04
29.7508	488.46
29.7652	468.90
29.7797	490.09
29.7941	490.50
29.8085	503.73
29.8230	513.62
29.8374	496.87
29.8519	483.29
29.8663	510.30
29.8807	500.91
29.8952	512.40
29.9096	540.65
29.9241	493.97
29.9385	518.72
29.9529	487.36
29.9674	483.54
29.9818	528.44
29.9963	517.95
30.0107	517.86
30.0251	515.84
30.0396	503.85
30.0540	497.73
30.0685	492.87
30.0829	483.39
30.0973	515.04
30.1118	499.07
30.1262	487.96
30.1407	496.93
30.1551	459.05
30.1695	495.97
30.1840	482.65
30.1984	483.63
30.2129	508.62
30.2273	508.27
30.2417	526.04
30.2562	507.57
30.2706	521.70
30.2851	548.04
30.2995	538.51
30.3139	525.68
30.3284	527.90
30.3428	559.04
30.3573	539.72
30.3717	515.02
30.3861	523.50
30.4006	495.91
30.4150	516.11
30.4295	500.52
30.4439	541.32
30.4583	577.42
30.4728	587.48
30.4872	592.79
30.5017	614.72
30.5161	618.68
30.5305	676.52
30.5450	744.29
30.5594	748.99
30.5739	766.96
30.5883	733.89
30.6028	740.07
30.6172	702.59
30.6316	715.64
30.6461	643.23
30.6605	653.03
30.6750	658.15
30.6894	623.48
30.7038	601.23
30.7183	595.66
30.7327	556.02
30.7472	528.37
30.7616	535.83
30.7760	558.53
30.7905	546.60
30.8049	544.65
30.8194	481.50
30.8338	476.50
30.8482	488.16
30.8627	523.23
30.8771	499.13
30.8916	517.69
30.9060	533.18
30.9204	493.03
30.9349	478.41
30.9493	514.92
30.9638	542.53
30.9782	521.93
30.9926	497.29
31.0071	485.34
31.0215	483.80
31.0360	499.22
31.0504	509.64
31.0648	535.00
31.0793	523.52
31.0937	494.97
31.1082	495.79
31.1226	516.56
31.1370	480.93
31.1515	499.65
31.1659	529.34
31.1804	521.47
31.1948	509.56
31.2092	524.84
31.2237	510.41
31.2381	513.61
31.2526	526.54
31.2670	528.16
31.2814	541.10
31.2959	497.55
31.3103	509.76
31.3248	534.77
31.3392	529.62
31.3536	520.94
31.3681	528.95
31.3825	554.72
31.3970	521.73
31.4114	484.46
31.4258	534.59
31.4403	503.12
31.4547	498.02
31.4692	492.46
31.4836	519.16
31.4980	516.16
31.5125	480.35
31.5269	497.93
31.5414	526.74
31.5558	491.25
31.5702	487.94
31.5847	502.68
31.5991	485.73
31.6136	498.35
31.6280	478.85
31.6424	485.45
31.6569	473.94
31.6713	504.48
31.6858	502.25
31.7002	516.49
31.7146	480.51
31.7291	479.55
31.7435	510.14
31.7580	489.71
31.7724	503.56
31.7868	491.88
31.8013	484.45
31.8157	509.79
31.8302	488.82
31.8446	527.44
31.8590	514.78
31.8735	523.21
31.8879	542.94
31.9024	508.42
31.9168	505.85
31.9312	521.92
31.9457	558.99
31.9601	477.85
31.9746	512.42
31.9890	499.03
32.0034	479.76
32.0179	511.84
32.0323	537.65
32.0468	525.45
32.0612	494.79
32.0756	485.22
32.0901	517.00
32.1045	520.90
32.1190	515.44
32.1334	500.78
32.1478	486.68
32.1623	500.42
32.1767	494.93
32.1912	509.25
32.2056	506.12
32.2200	502.74
32.2345	461.32
32.2489	498.75
32.2634	487.20
32.2778	518.30
32.2922	494.36
32.3067	500.24
32.3211	494.96
32.3356	516.55
32.3500	502.30
32.3644	497.30
32.3789	525.59
32.3933	509.14
32.4078	487.31
32.4222	508.54
32.4366	508.05
32.4511	499.01
32.4655	525.83
32.4800	490.24
32.4944	495.69
32.5088	466.24
32.5233	479.34
32.5377	489.77
32.5522	543.60
32.5666	482.32
32.5810	481.61
32.5955	525.70
32.6099	505.80
32.6244	487.24
32.6388	460.73
32.6532	508.07
32.6677	522.23
32.6821	494.67
32.6966	488.97
32.7110	524.94
32.7254	463.32
32.7399	483.26
32.7543	516.55
32.7688	495.43
32.7832	507.97
32.7976	481.60
32.8121	545.48
32.8265	530.58
32.8410	528.28
32.8554	496.82
32.8698	526.43
32.8843	501.34
32.8987	515.48
32.9132	568.01
32.9276	460.22
32.9420	471.16
32.9565	478.46
32.9709	480.91
32.9854	496.22
32.9998	489.26
33.0142	488.40
33.0287	489.38
33.0431	497.18
33.0576	535.53
33.0720	492.01
33.0864	542.40
33.1009	498.66
33.1153	500.66
33.1298	498.90
33.1442	484.38
33.1586	495.67
33.1731	536.33
33.1875	485.09
33.2020	480.59
33.2164	476.37
33.2308	503.80
33.2453	513.62
33.2597	505.13
33.2742	491.11
33.2886	509.01
33.3030	488.87
33.3175	477.65
33.3319	479.43
33.3464	499.73
33.3608	453.44
33.3752	479.02
33.3897	464.58
33.4041	505.86
33.4186	486.56
33.4330	518.05
33.4474	491.33
33.4619	509.83
33.4763	496.43
33.4908	500.81
33.5052	505.00
33.5196	502.06
33.5341	516.73
33.5485	532.63
33.5630	505.26
33.5774	473.64
33.5918	496.43
33.6063	493.18
33.6207	473.27
33.6352	513.95
33.6496	501.31
33.6640	499.92
33.6785	496.20
33.6929	484.90
33.7074	497.81
33.7218	516.80
33.7362	507.28
33.7507	474.18
33.7651	490.80
33.7796	506.36
33.7940	499.64
33.8084	540.50
33.8229	522.72
33.8373	523.96
33.8518	499.22
33.8662	526.55
33.8806	496.28
33.8951	502.42
33.9095	522.13
33.9240	497.10
33.9384	533.36
33.9528	461.89
33.9673	454.56
33.9817	496.61
33.9962	497.25
34.0106	501.36
34.0250	496.66
34.0395	501.58
34.0539	522.22
34.0684	517.12
34.0828	528.05
34.0972	492.12
34.1117	481.72
34.1261	514.92
34.1406	502.28
34.1550	469.76
34.1694	499.28
34.1839	514.58
34.1983	507.05
34.2128	526.11
34.2272	490.38
34.2417	492.94
34.2561	510.76
34.2705	489.19
34.2850	498.92
34.2994	475.04
34.3139	496.50
34.3283	543.91
34.3427	515.98
34.3572	504.51
34.3716	502.10
34.3861	479.38
34.4005	487.08
34.4149	511.66
34.4294	524.35
34.4438	528.49
34.4583	517.50
34.4727	529.32
34.4871	508.34
34.5016	466.09
34.5160	507.05
34.5305	501.78
34.5449	488.10
34.5593	520.74
34.5738	514.70
34.5882	511.15
34.6027	486.26
34.6171	496.95
34.6315	504.08
34.6460	497.50
34.6604	464.11
34.6749	492.60
34.6893	487.43
34.7037	501.88
34.7182	534.22
34.7326	525.61
34.7471	514.80
34.7615	512.99
34.7759	509.14
34.7904	483.47
34.8048	475.96
34.8193	478.63
34.8337	515.66
34.8481	515.50
34.8626	499.37
34.8770	506.56
34.8915	491.20
34.9059	496.57
34.9203	527.79
34.9348	505.79
34.9492	509.27
34.9637	481.08
34.9781	481.48
34.9925	486.00
35.0070	480.24
35.0214	509.42
35.0359	505.87
35.0503	479.81
35.0647	496.02
35.0792	501.33
35.0936	504.94
35.1081	493.19
35.1225	495.02
35.1369	511.66
35.1514	487.79
35.1658	475.17
35.1803	471.45
35.1947	497.58
35.2091	518.41
35.2236	531.47
35.2380	497.30
35.2525	541.07
35.2669	537.86
35.2813	514.01
35.2958	509.16
35.3102	507.62
35.3247	505.22
35.3391	504.90
35.3535	512.21
35.3680	498.61
35.3824	492.03
35.3969	499.45
35.4113	497.67
35.4257	509.65
35.4402	495.95
35.4546	491.29
35.4691	536.26
35.4835	510.60
35.4979	498.50
35.5124	549.26
35.5268	521.85
35.5413	541.50
35.5557	529.14
35.5701	506.52
35.5846	516.59
35.5990	504.11
35.6135	514.87
35.6279	517.67
35.6423	514.07
35.6568	522.40
35.6712	550.99
35.6857	544.64
35.7001	669.87
35.7145	792.28
35.7290	758.21
35.7434	663.21
35.7579	623.58
35.7723	628.64
35.7867	689.93
35.8012	732.42
35.8156	721.83
35.8301	746.10
35.8445	685.72
35.8589	774.77
35.8734	887.97
35.8878	1001.52
35.9023	1114.45
35.9167	1127.58
35.9311	1251.42
35.9456	1550.39
35.9600	1885.17
35.9745	2048.19
35.9889	2190.08
36.0033	2595.92
36.0178	3024.15
36.0322	3143.24
36.0467	2782.83
36.0611	2131.25
36.0755	1996.05
36.0900	2311.19
36.1044	2428.11
36.1189	1814.22
36.1333	1381.17
36.1477	1017.62
36.1622	1013.56
36.1766	957.80
36.1911	892.08
36.2055	773.67
36.2199	695.11
36.2344	717.10
36.2488	648.63
36.2633	572.47
36.2777	565.27
36.2921	570.86
36.3066	542.39
36.3210	532.72
36.3355	561.38
36.3499	569.16
36.3643	551.77
36.3788	528.19
36.3932	531.96
36.4077	530.52
36.4221	572.78
36.4365	541.39
36.4510	519.51
36.4654	529.50
36.4799	529.34
36.4943	526.57
36.5087	501.36
36.5232	548.17
36.5376	495.71
36.5521	500.09
36.5665	523.26
36.5809	507.35
36.5954	521.98
36.6098	510.19
36.6243	499.65
36.6387	519.01
36.6531	510.75
36.6676	502.55
36.6820	519.70
36.6965	486.82
36.7109	525.48
36.7253	511.20
36.7398	502.74
36.7542	540.47
36.7687	540.57
36.7831	532.17
36.7975	545.34
36.8120	560.94
36.8264	543.52
36.8409	571.33
36.8553	614.44
36.8697	608.35
36.8842	585.81
36.8986	577.07
36.9131	608.04
36.9275	571.33
36.9419	534.28
36.9564	621.93
36.9708	564.51
36.9853	554.67
36.9997	535.62
37.0141	516.31
37.0286	535.44
37.0430	568.41
37.0575	549.42
37.0719	513.84
37.0863	511.86
37.1008	484.68
37.1152	518.10
37.1297	510.48
37.1441	479.07
37.1585	479.00
37.1730	513.48
37.1874	490.67
37.2019	482.91
37.2163	492.01
37.2307	517.65
37.2452	528.11
37.2596	506.23
37.2741	502.25
37.2885	496.97
37.3029	490.52
37.3174	495.79
37.3318	487.41
37.3463	542.51
37.3607	502.66
37.3751	504.40
37.3896	463.86
37.4040	487.00
37.4185	511.27
37.4329	531.95
37.4473	504.95
37.4618	490.18
37.4762	503.73
37.4907	519.41
37.5051	497.91
37.5195	512.16
37.5340	511.31
37.5484	532.95
37.5629	511.49
37.5773	493.25
37.5917	501.20
37.6062	514.25
37.6206	534.21
37.6351	532.47
37.6495	510.90
37.6639	510.80
37.6784	487.68
37.6928	498.54
37.7073	539.23
37.7217	523.26
37.7361	494.41
37.7506	509.41
37.7650	475.02
37.7795	515.60
37.7939	496.98
37.8083	521.44
37.8228	503.69
37.8372	491.65
37.8517	481.13
37.8661	527.87
37.8805	516.62
37.8950	473.90
37.9094	541.05
37.9239	534.82
37.9383	502.08
37.9528	519.33
37.9672	492.11
37.9816	522.94
37.9961	498.19
38.0105	486.73
38.0250	501.95
38.0394	512.72
38.0538	486.73
38.0683	541.31
38.0827	525.68
38.0972	497.83
38.1116	496.57
38.1260	505.91
38.1405	516.53
38.1549	490.90
38.1694	509.26
38.1838	516.66
38.1982	494.06
38.2127	494.50
38.2271	488.23
38.2416	533.84
38.2560	504.25
38.2704	525.36
38.2849	494.60
38.2993	526.29
38.3138	535.10
38.3282	541.71
38.3426	533.12
38.3571	498.85
38.3715	503.75
38.3860	500.97
38.4004	534.33
38.4148	559.55
38.4293	539.99
38.4437	562.31
38.4582	582.26
38.4726	606.47
38.4870	639.48
38.5015	761.65
38.5159	779.79
38.5304	798.66
38.5448	823.00
38.5592	777.09
38.5737	709.36
38.5881	718.97
38.6026	729.00
38.6170	712.90
38.6314	698.36
38.6459	676.74
38.6603	630.74
38.6748	606.70
38.6892	613.49
38.7036	578.73
38.7181	522.50
38.7325	520.43
38.7470	502.46
38.7614	516.55
38.7758	531.59
38.7903	514.28
38.8047	534.49
38.8192	523.39
38.8336	545.33
38.8480	514.45
38.8625	502.82
38.8769	498.23
38.8914	509.14
38.9058	541.85
38.9202	522.55
38.9347	513.42
38.9491	496.80
38.9636	505.65
38.9780	512.27
38.9924	515.66
39.0069	497.14
39.0213	499.94
39.0358	506.94
39.0502	509.91
39.0646	500.64
39.0791	505.99
39.0935	503.07
39.1080	464.07
39.1224	505.94
39.1368	490.43
39.1513	518.66
39.1657	520.65
39.1802	505.36
39.1946	494.48
39.2090	501.30
39.2235	508.90
39.2379	522.33
39.2524	493.29
39.2668	493.70
39.2812	531.52
39.2957	497.04
39.3101	486.62
39.3246	493.43
39.3390	513.30
39.3534	486.66
39.3679	508.22
39.3823	499.23
39.3968	498.60
39.4112	493.80
39.4256	518.21
39.4401	510.55
39.4545	492.72
39.4690	510.69
39.4834	506.20
39.4978	517.05
39.5123	477.90
39.5267	489.47
39.5412	513.73
39.5556	485.48
39.5700	485.78
39.5845	482.15
39.5989	501.06
39.6134	506.70
39.6278	490.30
39.6422	480.67
39.6567	512.77
39.6711	492.68
39.6856	499.72
39.7000	542.08
39.7144	539.80
39.7289	507.94
39.7433	505.87
39.7578	488.99
39.7722	527.39
39.7866	510.01
39.8011	491.28
39.8155	511.10
39.8300	505.89
39.8444	485.68
39.8588	505.39
39.8733	492.49
39.8877	484.47
39.9022	529.29
39.9166	447.13
39.9310	478.67
39.9455	494.12
39.9599	492.67
39.9744	465.61
39.9888	476.13
40.0032	457.58
40.0177	491.59
40.0321	534.22
40.0466	489.87
40.0610	502.94
40.0754	513.69
40.0899	498.11
40.1043	488.67
40.1188	484.28
40.1332	498.92
40.1476	495.50
40.1621	481.68
40.1765	489.85
40.1910	468.23
40.2054	446.17
40.2198	500.53
40.2343	535.43
40.2487	499.02
40.2632	486.65
40.2776	511.28
40.2920	507.98
40.3065	493.42
40.3209	463.34
40.3354	489.66
40.3498	495.43
40.3642	487.69
40.3787	453.46
40.3931	512.63
40.4076	493.23
40.4220	477.67
40.4364	487.50
40.4509	499.45
40.4653	494.66
40.4798	494.24
40.4942	491.17
40.5086	463.79
40.5231	478.86
40.5375	478.17
40.5520	492.33
40.5664	505.98
40.5808	498.51
40.5953	487.07
40.6097	506.94
40.6242	488.69
40.6386	511.54
40.6530	476.65
40.6675	483.49
40.6819	509.24
40.6964	499.88
40.7108	518.53
40.7252	483.53
40.7397	484.66
40.7541	512.66
40.7686	463.03
40.7830	507.77
40.7974	525.91
40.8119	515.73
40.8263	459.71
40.8408	480.65
40.8552	531.17
40.8696	494.32
40.8841	471.27
40.8985	462.47
40.9130	496.02
40.9274	529.67
40.9418	504.70
40.9563	486.87
40.9707	460.12
40.9852	493.94
40.9996	502.01
41.0140	520.92
41.0285	514.15
41.0429	509.96
41.0574	504.80
41.0718	518.34
41.0862	515.97
41.1007	522.32
41.1151	517.64
41.1296	531.97
41.1440	460.08
41.1584	498.35
41.1729	498.07
41.1873	508.23
41.2018	487.38
41.2162	491.12
41.2306	476.48
41.2451	518.43
41.2595	483.93
41.2740	462.81
41.2884	500.29
41.3028	495.38
41.3173	509.34
41.3317	463.46
41.3462	531.62
41.3606	507.62
41.3750	493.74
41.3895	505.23
41.4039	479.03
41.4184	486.54
41.4328	498.51
41.4472	476.39
41.4617	492.63
41.4761	524.46
41.4906	501.73
41.5050	493.77
41.5194	496.20
41.5339	515.49
41.5483	507.83
41.5628	496.08
41.5772	526.09
41.5916	506.43
41.6061	498.69
41.6205	493.63
41.6350	497.78
41.6494	510.77
41.6639	474.44
41.6783	467.22
41.6927	484.26
41.7072	532.10
41.7216	519.71
41.7361	498.24
41.7505	498.10
41.7649	511.26
41.7794	492.49
41.7938	488.40
41.8083	518.94
41.8227	498.08
41.8371	530.94
41.8516	515.63
41.8660	501.82
41.8805	532.87
41.8949	520.10
41.9093	536.31
41.9238	546.20
41.9382	559.35
41.9527	541.54
41.9671	538.73
41.9815	535.97
41.9960	604.85
42.0104	579.18
42.0249	539.52
42.0393	548.69
42.0537	546.76
42.0682	559.85
42.0826	591.30
42.0971	622.89
42.1115	551.78
42.1259	590.73
42.1404	596.42
42.1548	585.40
42.1693	674.19
42.1837	690.44
42.1981	739.88
42.2126	851.89
42.2270	914.97
42.2415	1023.35
42.2559	1191.71
42.2703	1351.47
42.2848	1512.77
42.2992	1529.56
42.3137	1623.82
42.3281	1655.16
42.3425	1573.47
42.3570	1447.88
42.3714	1395.02
42.3859	1344.60
42.4003	1270.12
42.4147	1298.06
42.4292	1246.18
42.4436	1096.28
42.4581	1001.89
42.4725	948.27
42.4869	811.09
42.5014	718.52
42.5158	707.62
42.5303	655.10
42.5447	630.14
42.5591	619.92
42.5736	572.46
42.5880	578.53
42.6025	545.88
42.6169	536.82
42.6313	554.59
42.6458	531.56
42.6602	543.70
42.6747	534.91
42.6891	539.64
42.7035	547.03
42.7180	534.14
42.7324	571.52
42.7469	534.04
42.7613	518.42
42.7757	514.83
42.7902	499.47
42.8046	512.99
42.8191	544.68
42.8335	541.91
42.8479	505.58
42.8624	516.72
42.8768	499.01
42.8913	501.11
42.9057	529.24
42.9201	511.15
42.9346	520.05
42.9490	488.20
42.9635	477.25
42.9779	505.09
42.9923	490.12
43.0068	497.47
43.0212	529.16
43.0357	505.21
43.0501	493.88
43.0645	491.71
43.0790	480.56
43.0934	509.90
43.1079	510.24
43.1223	512.73
43.1367	528.11
43.1512	489.09
43.1656	527.35
43.1801	512.71
43.1945	507.94
43.2089	514.40
43.2234	525.71
43.2378	550.45
43.2523	524.18
43.2667	526.86
43.2811	526.07
43.2956	530.17
43.3100	537.84
43.3245	531.31
43.3389	520.41
43.3533	500.08
43.3678	516.43
43.3822	512.43
43.3967	487.88
43.4111	500.32
43.4255	527.34
43.4400	521.38
43.4544	506.00
43.4689	537.51
43.4833	527.96
43.4977	509.03
43.5122	508.03
43.5266	530.09
43.5411	535.05
43.5555	527.25
43.5699	539.44
43.5844	547.10
43.5988	540.98
43.6133	525.48
43.6277	548.12
43.6421	558.54
43.6566	526.49
43.6710	526.33
43.6855	576.48
43.6999	619.61
43.7143	632.38
43.7288	623.49
43.7432	685.18
43.7577	675.94
43.7721	668.43
43.7865	645.27
43.8010	591.90
43.8154	623.24
43.8299	618.19
43.8443	586.05
43.8587	619.64
43.8732	620.81
43.8876	574.01
43.9021	592.39
43.9165	559.18
43.9309	553.83
43.9454	513.97
43.9598	489.30
43.9743	524.01
43.9887	538.98
44.0031	520.58
44.0176	511.58
44.0320	525.51
44.0465	572.17
44.0609	568.06
44.0753	508.37
44.0898	537.09
44.1042	525.32
44.1187	532.17
44.1331	538.73
44.1475	474.23
44.1620	509.45
44.1764	495.62
44.1909	498.02
44.2053	492.72
44.2197	524.36
44.2342	545.45
44.2486	551.95
44.2631	532.52
44.2775	501.32
44.2919	521.55
44.3064	519.93
44.3208	556.02
44.3353	560.09
44.3497	554.15
44.3641	538.57
44.3786	539.45
44.3930	563.64
44.4075	524.93
44.4219	555.58
44.4363	601.25
44.4508	569.06
44.4652	580.56
44.4797	578.73
44.4941	602.38
44.5085	555.25
44.5230	558.79
44.5374	578.80
44.5519	550.51
44.5663	524.34
44.5807	557.13
44.5952	560.19
44.6096	595.59
44.6241	570.01
44.6385	579.63
44.6529	576.96
44.6674	581.31
44.6818	583.94
44.6963	597.78
44.7107	660.36
44.7251	659.45
44.7396	694.52
44.7540	822.00
44.7685	823.89
44.7829	849.87
44.7973	846.33
44.8118	832.91
44.8262	803.54
44.8407	765.90
44.8551	732.88
44.8695	690.92
44.8840	710.16
44.8984	716.62
44.9129	676.32
44.9273	610.62
44.9417	641.09
44.9562	582.16
44.9706	563.16
44.9851	553.07
44.9995	532.29
45.0139	528.04
45.0284	534.76
45.0428	535.23
45.0573	514.64
45.0717	512.23
45.0861	508.45
45.1006	526.47
45.1150	549.92
45.1295	535.79
45.1439	491.41
45.1583	533.91
45.1728	494.35
45.1872	510.12
45.2017	528.00
45.2161	551.46
45.2305	541.10
45.2450	491.86
45.2594	455.56
45.2739	475.10
45.2883	520.18
45.3028	491.27
45.3172	498.13
45.3316	520.63
45.3461	511.79
45.3605	506.13
45.3750	504.63
45.3894	520.84
45.4038	514.05
45.4183	534.12
45.4327	508.22
45.4472	477.54
45.4616	492.51
45.4760	503.80
45.4905	485.65
45.5049	476.40
45.5194	463.14
45.5338	503.83
45.5482	493.56
45.5627	495.83
45.5771	465.64
45.5916	464.25
45.6060	479.43
45.6204	492.57
45.6349	511.07
45.6493	525.35
45.6638	522.72
45.6782	513.14
45.6926	497.81
45.7071	505.22
45.7215	482.32
45.7360	477.63
45.7504	509.91
45.7648	500.82
45.7793	539.50
45.7937	492.80
45.8082	488.83
45.8226	505.03
45.8370	496.69
45.8515	494.95
45.8659	512.00
45.8804	485.67
45.8948	503.07
45.9092	508.45
45.9237	508.66
45.9381	517.74
45.9526	532.76
45.9670	499.92
45.9814	475.36
45.9959	481.14
46.0103	517.24
46.0248	502.48
46.0392	504.80
46.0536	481.65
46.0681	493.09
46.0825	499.16
46.0970	492.01
46.1114	487.77
46.1258	507.78
46.1403	479.65
46.1547	497.02
46.1692	497.42
46.1836	521.55
46.1980	492.18
46.2125	500.38
46.2269	524.96
46.2414	498.87
46.2558	450.55
46.2702	466.35
46.2847	522.13
46.2991	508.40
46.3136	480.21
46.3280	490.19
46.3424	509.99
46.3569	503.05
46.3713	488.70
46.3858	500.49
46.4002	471.21
46.4146	477.70
46.4291	506.83
46.4435	479.91
46.4580	486.25
46.4724	530.16
46.4868	520.68
46.5013	512.56
46.5157	517.07
46.5302	529.93
46.5446	502.99
46.5590	521.40
46.5735	522.63
46.5879	495.32
46.6024	498.43
46.6168	502.48
46.6312	521.87
46.6457	513.63
46.6601	487.64
46.6746	490.40
46.6890	492.69
46.7034	545.27
46.7179	520.16
46.7323	512.33
46.7468	501.36
46.7612	504.33
46.7756	474.45
46.7901	437.73
46.8045	512.79
46.8190	531.13
46.8334	494.18
46.8478	512.33
46.8623	499.83
46.8767	506.66
46.8912	458.86
46.9056	516.73
46.9200	511.73
46.9345	510.76
46.9489	507.43
46.9634	477.29
46.9778	476.48
46.9922	523.27
47.0067	529.88
47.0211	506.58
47.0356	489.35
47.0500	492.17
47.0644	500.18
47.0789	500.39
47.0933	514.61
47.1078	529.09
47.1222	505.09
47.1366	481.57
47.1511	470.87
47.1655	491.85
47.1800	501.71
47.1944	515.01
47.2088	479.65
47.2233	484.07
47.2377	519.73
47.2522	514.27
47.2666	477.12
47.2810	500.81
47.2955	495.58
47.3099	473.35
47.3244	481.31
47.3388	494.46
47.3532	509.61
47.3677	502.14
47.3821	497.48
47.3966	495.92
47.4110	487.07
47.4254	537.08
47.4399	514.58
47.4543	517.16
47.4688	546.36
47.4832	500.55
47.4976	456.42
47.5121	497.45
47.5265	512.02
47.5410	485.46
47.5554	483.46
47.5698	510.11
47.5843	504.07
47.5987	509.07
47.6132	516.84
47.6276	526.73
47.6420	497.11
47.6565	532.63
47.6709	517.79
47.6854	506.30
47.6998	537.44
47.7142	526.96
47.7287	491.30
47.7431	518.19
47.7576	510.36
47.7720	495.53
47.7864	539.23
47.8009	475.10
47.8153	494.72
47.8298	510.23
47.8442	534.95
47.8586	524.84
47.8731	470.88
47.8875	481.23
47.9020	503.58
47.9164	508.15
47.9308	483.13
47.9453	474.15
47.9597	482.12
47.9742	506.80
47.9886	496.00
48.0030	530.19
48.0175	498.30
48.0319	484.15
48.0464	522.00
48.0608	540.55
48.0752	498.31
48.0897	499.74
48.1041	465.41
48.1186	493.90
48.1330	479.74
48.1474	517.93
48.1619	550.56
48.1763	496.76
48.1908	515.42
48.2052	472.27
48.2196	508.70
48.2341	475.01
48.2485	531.38
48.2630	499.72
48.2774	535.80
48.2918	517.62
48.3063	493.00
48.3207	532.89
48.3352	517.71
48.3496	513.69
48.3640	491.63
48.3785	501.33
48.3929	505.55
48.4074	491.47
48.4218	524.77
48.4362	491.54
48.4507	478.06
48.4651	525.00
48.4796	514.16
48.4940	495.35
48.5084	481.92
48.5229	490.71
48.5373	491.75
48.5518	504.37
48.5662	513.93
48.5806	551.34
48.5951	525.66
48.6095	508.63
48.6240	527.09
48.6384	519.52
48.6528	512.02
48.6673	496.40
48.6817	459.81
48.6962	512.03
48.7106	530.68
48.7250	503.91
48.7395	531.48
48.7539	530.72
48.7684	501.00
48.7828	528.96
48.7972	542.61
48.8117	544.13
48.8261	524.06
48.8406	532.52
48.8550	526.66
48.8694	548.41
48.8839	512.95
48.8983	587.34
48.9128	588.09
48.9272	539.26
48.9416	569.34
48.9561	569.01
48.9705	565.74
48.9850	588.14
48.9994	592.67
49.0139	575.94
49.0283	592.92
49.0427	569.93
49.0572	691.48
49.0716	656.36
49.0861	653.45
49.1005	696.27
49.1149	738.43
49.1294	780.66
49.1438	766.59
49.1583	770.85
49.1727	876.54
49.1871	904.09
49.2016	1019.56
49.2160	1107.79
49.2305	1152.23
49.2449	1234.58
49.2593	1280.69
49.2738	1405.36
49.2882	1479.15
49.3027	1566.80
49.3171	1704.05
49.3315	1775.07
49.3460	1877.13
49.3604	1866.02
49.3749	1772.75
49.3893	1724.82
49.4037	1728.58
49.4182	1790.35
49.4326	1778.51
49.4471	1666.28
49.4615	1573.61
49.4759	1609.30
49.4904	1508.40
49.5048	1427.77
49.5193	1328.11
49.5337	1304.51
49.5481	1232.82
49.5626	1077.14
49.5770	1023.59
49.5915	977.42
49.6059	926.38
49.6203	846.99
49.6348	801.40
49.6492	756.77
49.6637	730.81
49.6781	726.85
49.6925	674.39
49.7070	619.34
49.7214	617.73
49.7359	621.55
49.7503	651.05
49.7647	581.39
49.7792	547.32
49.7936	572.07
49.8081	574.63
49.8225	566.73
49.8369	548.61
49.8514	539.41
49.8658	590.95
49.8803	573.89
49.8947	568.86
49.9091	536.85
49.9236	567.99
49.9380	526.19
49.9525	524.88
49.9669	520.26
49.9813	539.05
49.9958	552.52
50.0102	561.38
50.0247	551.02
50.0391	542.31
50.0535	516.53
50.0680	505.18
50.0824	517.77
50.0969	513.09
50.1113	532.24
50.1257	544.80
50.1402	500.06
50.1546	499.51
50.1691	487.58
50.1835	522.38
50.1979	475.27
50.2124	479.73
50.2268	530.95
50.2413	538.54
50.2557	513.11
50.2701	518.54
50.2846	543.42
50.2990	529.60
50.3135	515.43
50.3279	509.45
50.3423	528.86
50.3568	507.83
50.3712	510.57
50.3857	494.09
50.4001	494.30
50.4145	528.97
50.4290	543.97
50.4434	512.65
50.4579	523.81
50.4723	529.30
50.4867	510.80
50.5012	537.57
50.5156	516.16
50.5301	512.29
50.5445	516.56
50.5589	514.82
50.5734	497.37
50.5878	471.23
50.6023	485.42
50.6167	505.23
50.6311	517.83
50.6456	522.58
50.6600	518.94
50.6745	494.73
50.6889	477.51
50.7033	519.35
50.7178	529.74
50.7322	531.98
50.7467	525.29
50.7611	488.93
50.7755	518.61
50.7900	501.11
50.8044	507.20
50.8189	537.78
50.8333	490.84
50.8477	511.66
50.8622	488.57
50.8766	499.02
50.8911	515.48
50.9055	528.32
50.9199	480.37
50.9344	483.10
50.9488	502.43
50.9633	518.32
50.9777	505.58
50.9921	506.86
51.0066	476.98
51.0210	506.54
51.0355	528.65
51.0499	536.96
51.0643	515.67
51.0788	527.15
51.0932	534.57
51.1077	525.74
51.1221	561.32
51.1365	535.27
51.1510	483.38
51.1654	488.90
51.1799	532.12
51.1943	517.25
51.2087	494.80
51.2232	498.56
51.2376	491.32
51.2521	482.80
51.2665	503.68
51.2809	501.73
51.2954	508.45
51.3098	510.65
51.3243	530.54
51.3387	511.38
51.3531	521.66
51.3676	517.53
51.3820	502.68
51.3965	560.64
51.4109	516.58
51.4253	526.40
51.4398	528.88
51.4542	529.62
51.4687	502.38
51.4831	541.78
51.4975	499.81
51.5120	531.02
51.5264	501.68
51.5409	475.55
51.5553	526.06
51.5697	499.21
51.5842	504.44
51.5986	512.33
51.6131	512.93
51.6275	491.57
51.6419	489.42
51.6564	501.52
51.6708	485.12
51.6853	478.26
51.6997	523.65
51.7141	537.64
51.7286	491.56
51.7430	497.20
51.7575	502.91
51.7719	505.78
51.7863	510.84
51.8008	487.29
51.8152	479.34
51.8297	528.83
51.8441	538.17
51.8585	494.90
51.8730	510.30
51.8874	488.71
51.9019	531.32
51.9163	520.04
51.9307	484.84
51.9452	521.46
51.9596	483.91
51.9741	533.90
51.9885	509.15
52.0029	509.17
52.0174	503.01
52.0318	516.57
52.0463	505.35
52.0607	532.33
52.0751	535.81
52.0896	548.98
52.1040	506.74
52.1185	493.71
52.1329	530.57
52.1473	496.74
52.1618	542.14
52.1762	533.25
52.1907	502.86
52.2051	500.46
52.2195	502.98
52.2340	506.16
52.2484	505.59
52.2629	506.95
52.2773	503.78
52.2917	490.38
52.3062	484.43
52.3206	498.37
52.3351	532.66
52.3495	498.24
52.3639	487.68
52.3784	490.71
52.3928	482.31
52.4073	504.29
52.4217	511.97
52.4361	528.98
52.4506	492.97
52.4650	542.51
52.4795	509.71
52.4939	501.12
52.5083	541.91
52.5228	506.03
52.5372	519.36
52.5517	551.53
52.5661	510.50
52.5805	502.09
52.5950	503.11
52.6094	489.36
52.6239	520.93
52.6383	528.72
52.6527	504.14
52.6672	484.63
52.6816	469.68
52.6961	502.76
52.7105	468.52
52.7250	499.69
52.7394	498.31
52.7538	536.54
52.7683	522.64
52.7827	530.95
52.7972	516.03
52.8116	534.13
52.8260	534.37
52.8405	490.22
52.8549	500.55
52.8694	497.43
52.8838	515.04
52.8982	504.85
52.9127	524.19
52.9271	495.30
52.9416	515.82
52.9560	522.92
52.9704	493.42
52.9849	492.98
52.9993	507.29
53.0138	478.00
53.0282	519.63
53.0426	498.01
53.0571	516.87
53.0715	526.65
53.0860	492.34
53.1004	486.16
53.1148	501.57
53.1293	542.20
53.1437	512.48
53.1582	517.18
53.1726	520.58
53.1870	500.52
53.2015	496.29
53.2159	520.83
53.2304	482.26
53.2448	513.76
53.2592	507.39
53.2737	498.81
53.2881	517.76
53.3026	517.22
53.3170	508.62
53.3314	519.68
53.3459	505.32
53.3603	499.71
53.3748	509.50
53.3892	519.50
53.4036	514.52
53.4181	551.08
53.4325	574.76
53.4470	483.32
53.4614	516.15
53.4758	516.73
53.4903	520.74
53.5047	502.89
53.5192	503.36
53.5336	530.37
53.5480	541.80
53.5625	507.58
53.5769	514.08
53.5914	513.67
53.6058	503.50
53.6202	493.98
53.6347	523.30
53.6491	522.10
53.6636	510.51
53.6780	492.38
53.6924	506.89
53.7069	527.60
53.7213	508.73
53.7358	505.41
53.7502	521.30
53.7646	528.63
53.7791	502.10
53.7935	521.21
53.8080	521.00
53.8224	525.53
53.8368	545.95
53.8513	542.45
53.8657	514.99
53.8802	509.60
53.8946	527.86
53.9090	491.22
53.9235	487.69
53.9379	500.45
53.9524	531.66
53.9668	532.34
53.9812	525.22
53.9957	550.90
54.0101	470.89
54.0246	534.90
54.0390	543.49
54.0534	515.06
54.0679	554.09
54.0823	564.41
54.0968	531.07
54.1112	519.27
54.1256	550.68
54.1401	534.21
54.1545	530.21
54.1690	531.59
54.1834	556.96
54.1978	537.06
54.2123	548.01
54.2267	603.22
54.2412	636.36
54.2556	628.67
54.2700	627.15
54.2845	622.64
54.2989	626.56
54.3134	626.42
54.3278	622.21
54.3422	601.37
54.3567	600.11
54.3711	592.02
54.3856	607.96
54.4000	588.64
54.4144	598.04
54.4289	637.88
54.4433	615.29
54.4578	596.80
54.4722	566.71
54.4866	550.92
54.5011	540.91
54.5155	557.55
54.5300	550.04
54.5444	572.56
54.5588	532.56
54.5733	541.17
54.5877	536.80
54.6022	520.24
54.6166	531.34
54.6310	512.50
54.6455	476.21
54.6599	521.51
54.6744	539.44
54.6888	521.66
54.7032	539.57
54.7177	514.47
54.7321	492.42
54.7466	532.44
54.7610	492.83
54.7754	515.06
54.7899	504.50
54.8043	478.85
54.8188	519.79
54.8332	508.70
54.8476	515.87
54.8621	526.50
54.8765	553.11
54.8910	513.32
54.9054	519.55
54.9198	481.54
54.9343	520.94
54.9487	496.06
54.9632	518.48
54.9776	513.98
54.9920	511.92
55.0065	509.19
55.0209	535.67
55.0354	521.62
55.0498	509.82
55.0642	517.01
55.0787	502.17
55.0931	509.69
55.1076	513.45
55.1220	527.04
55.1364	484.02
55.1509	493.26
55.1653	532.39
55.1798	546.32
55.1942	525.77
55.2086	524.13
55.2231	508.63
55.2375	519.91
55.2520	493.58
55.2664	504.86
55.2808	542.20
55.2953	527.23
55.3097	502.07
55.3242	522.47
55.3386	507.93
55.3530	498.07
55.3675	498.91
55.3819	530.56
55.3964	480.46
55.4108	514.60
55.4252	563.85
55.4397	552.22
55.4541	540.90
55.4686	538.96
55.4830	513.97
55.4974	491.25
55.5119	480.58
55.5263	522.16
55.5408	525.02
55.5552	521.74
55.5696	511.69
55.5841	498.71
55.5985	508.09
55.6130	490.94
55.6274	495.85
55.6418	525.24
55.6563	508.71
55.6707	514.88
55.6852	525.34
55.6996	554.91
55.7140	507.70
55.7285	471.80
55.7429	477.38
55.7574	527.26
55.7718	536.67
55.7862	563.28
55.8007	552.53
55.8151	514.87
55.8296	496.60
55.8440	526.59
55.8584	505.51
55.8729	515.42
55.8873	523.19
55.9018	542.46
55.9162	532.06
55.9306	554.04
55.9451	556.74
55.9595	504.14
55.9740	481.36
55.9884	518.66
56.0028	544.28
56.0173	515.05
56.0317	525.74
56.0462	504.10
56.0606	504.08
56.0750	500.25
56.0895	527.92
56.1039	523.77
56.1184	541.66
56.1328	540.76
56.1472	498.09
56.1617	546.51
56.1761	549.07
56.1906	498.40
56.2050	509.83
56.2194	527.47
56.2339	546.97
56.2483	529.72
56.2628	495.24
56.2772	529.85
56.2916	503.53
56.3061	511.13
56.3205	524.69
56.3350	519.83
56.3494	538.00
56.3639	543.15
56.3783	550.77
56.3927	507.07
56.4072	515.11
56.4216	556.90
56.4361	520.79
56.4505	505.95
56.4649	508.17
56.4794	513.85
56.4938	496.30
56.5083	480.94
56.5227	456.57
56.5371	505.95
56.5516	561.37
56.5660	525.70
56.5805	528.32
56.5949	516.89
56.6093	501.84
56.6238	507.10
56.6382	507.73
56.6527	514.90
56.6671	486.73
56.6815	510.17
56.6960	483.07
56.7104	522.67
56.7249	510.56
56.7393	534.32
56.7537	535.95
56.7682	480.43
56.7826	516.20
56.7971	538.33
56.8115	533.27
56.8259	525.45
56.8404	510.62
56.8548	523.89
56.8693	495.74
56.8837	482.41
56.8981	571.36
56.9126	557.08
56.9270	543.98
56.9415	520.25
56.9559	494.48
56.9703	517.69
56.9848	499.64
56.9992	530.17
57.0137	502.62
57.0281	495.39
57.0425	504.36
57.0570	568.17
57.0714	507.06
57.0859	547.46
57.1003	522.90
57.1147	513.03
57.1292	550.25
57.1436	534.12
57.1581	538.69
57.1725	503.07
57.1869	519.69
57.2014	533.56
57.2158	526.84
57.2303	497.33
57.2447	484.12
57.2591	499.24
57.2736	517.03
57.2880	510.37
57.3025	510.15
57.3169	548.90
57.3313	555.26
57.3458	541.85
57.3602	520.55
57.3747	527.46
57.3891	520.82
57.4035	520.79
57.4180	531.85
57.4324	509.22
57.4469	500.34
57.4613	531.58
57.4757	541.44
57.4902	491.69
57.5046	478.84
57.5191	514.09
57.5335	517.11
57.5479	486.26
57.5624	528.39
57.5768	502.66
57.5913	485.13
57.6057	528.22
57.6201	500.29
57.6346	520.55
57.6490	551.68
57.6635	601.40
57.6779	539.20
57.6923	516.03
57.7068	542.43
57.7212	542.90
57.7357	533.77
57.7501	562.90
57.7645	552.78
57.7790	560.52
57.7934	576.66
57.8079	616.76
57.8223	668.00
57.8367	671.21
57.8512	707.82
57.8656	774.68
57.8801	780.16
57.8945	802.32
57.9089	798.10
57.9234	707.70
57.9378	680.67
57.9523	666.74
57.9667	650.03
57.9811	664.87
57.9956	648.36
58.0100	661.88
58.0245	725.15
58.0389	710.72
58.0533	662.15
58.0678	606.04
58.0822	596.93
58.0967	560.32
58.1111	576.16
58.1255	570.53
58.1400	533.13
58.1544	542.58
58.1689	545.15
58.1833	540.04
58.1977	541.88
58.2122	540.87
58.2266	504.94
58.2411	539.93
58.2555	531.39
58.2699	540.08
58.2844	525.30
58.2988	533.38
58.3133	558.38
58.3277	563.19
58.3421	566.16
58.3566	544.17
58.3710	521.18
58.3855	517.07
58.3999	497.21
58.4143	513.75
58.4288	536.24
58.4432	529.48
58.4577	522.60
58.4721	543.67
58.4865	550.87
58.5010	508.05
58.5154	524.99
58.5299	534.39
58.5443	509.95
58.5587	526.33
58.5732	523.03
58.5876	524.80
58.6021	518.00
58.6165	522.99
58.6309	540.46
58.6454	505.59
58.6598	529.24
58.6743	514.74
58.6887	522.60
58.7031	535.16
58.7176	500.13
58.7320	529.44
58.7465	528.91
58.7609	505.11
58.7753	529.19
58.7898	500.08
58.8042	525.39
58.8187	534.00
58.8331	514.07
58.8475	529.67
58.8620	547.47
58.8764	524.84
58.8909	519.96
58.9053	551.81
58.9197	534.66
58.9342	508.92
58.9486	478.00
58.9631	499.99
58.9775	532.34
58.9919	533.55
59.0064	542.52
59.0208	537.56
59.0353	524.78
59.0497	509.63
59.0641	502.12
59.0786	508.78
59.0930	521.11
59.1075	534.65
59.1219	531.32
59.1363	498.07
59.1508	515.09
59.1652	521.91
59.1797	526.57
59.1941	520.23
59.2085	525.22
59.2230	519.86
59.2374	549.47
59.2519	541.56
59.2663	543.02
59.2807	552.26
59.2952	543.15
59.3096	524.18
59.3241	550.54
59.3385	562.43
59.3529	528.67
59.3674	554.99
59.3818	577.83
59.3963	536.76
59.4107	519.68
59.4251	553.54
59.4396	580.87
59.4540	511.62
59.4685	560.33
59.4829	560.55
59.4973	557.94
59.5118	544.57
59.5262	528.90
59.5407	528.12
59.5551	576.27
59.5695	591.94
59.5840	570.43
59.5984	562.24
59.6129	542.91
59.6273	526.77
59.6417	554.21
59.6562	545.76
59.6706	529.90
59.6851	540.11
59.6995	532.15
59.7139	550.58
59.7284	541.15
59.7428	535.02
59.7573	551.08
59.7717	558.44
59.7861	530.58
59.8006	505.61
59.8150	547.71
59.8295	530.46
59.8439	513.62
59.8583	530.76
59.8728	536.19
59.8872	546.31
59.9017	541.94
59.9161	559.07
59.9305	574.03
59.9450	543.52
59.9594	498.23
59.9739	535.85
59.9883	549.41
60.0027	532.33
60.0172	543.77
60.0316	520.55
60.0461	506.44
60.0605	555.58
60.0750	521.86
60.0894	523.14
60.1038	523.46
60.1183	552.89
60.1327	540.12
60.1472	521.23
60.1616	515.82
60.1760	545.91
60.1905	497.93
60.2049	512.54
60.2194	539.56
60.2338	578.62
60.2482	549.35
60.2627	528.17
60.2771	567.69
60.2916	562.66
60.3060	510.82
60.3204	516.47
60.3349	520.12
60.3493	531.56
60.3638	538.84
60.3782	519.83
60.3926	542.84
60.4071	504.30
60.4215	523.30
60.4360	525.45
60.4504	503.06
60.4648	564.79
60.4793	530.62
60.4937	528.51
60.5082	500.05
60.5226	505.18
60.5370	523.54
60.5515	525.67
60.5659	528.52
60.5804	539.12
60.5948	505.22
60.6092	516.13
60.6237	536.80
60.6381	545.00
60.6526	519.48
60.6670	548.73
60.6814	528.80
60.6959	521.86
60.7103	549.07
60.7248	543.30
60.7392	521.05
60.7536	514.92
60.7681	511.74
60.7825	529.12
60.7970	515.22
60.8114	562.64
60.8258	538.79
60.8403	519.24
60.8547	571.07
60.8692	530.40
60.8836	530.98
60.8980	541.95
60.9125	552.12
60.9269	520.97
60.9414	536.33
60.9558	524.68
60.9702	505.42
60.9847	526.41
60.9991	534.67
61.0136	548.00
61.0280	540.63
61.0424	493.29
61.0569	537.55
61.0713	551.49
61.0858	546.70
61.1002	546.45
61.1146	591.95
61.1291	541.67
61.1435	515.81
61.1580	538.02
61.1724	552.95
61.1868	544.80
61.2013	513.22
61.2157	533.66
61.2302	565.78
61.2446	529.06
61.2590	501.01
61.2735	515.27
61.2879	541.40
61.3024	542.26
61.3168	526.91
61.3312	552.21
61.3457	537.84
61.3601	536.99
61.3746	538.64
61.3890	556.68
61.4034	536.90
61.4179	532.26
61.4323	621.52
61.4468	529.82
61.4612	520.64
61.4756	559.05
61.4901	547.91
61.5045	505.22
61.5190	508.33
61.5334	551.21
61.5478	521.65
61.5623	541.41
61.5767	530.49
61.5912	542.97
61.6056	515.90
61.6200	531.45
61.6345	557.49
61.6489	513.43
61.6634	531.21
61.6778	522.91
61.6922	531.82
61.7067	535.25
61.7211	536.34
61.7356	510.25
61.7500	537.33
61.7644	525.80
61.7789	553.47
61.7933	501.02
61.8078	510.30
61.8222	511.27
61.8366	510.28
61.8511	553.73
61.8655	542.97
61.8800	544.46
61.8944	535.66
61.9088	559.45
61.9233	544.65
61.9377	557.83
61.9522	524.44
61.9666	492.35
61.9810	550.33
61.9955	538.40
62.0099	521.34
62.0244	537.07
62.0388	546.74
62.0532	563.65
62.0677	536.53
62.0821	519.45
62.0966	553.75
62.1110	540.20
62.1254	574.26
62.1399	528.89
62.1543	496.84
62.1688	546.43
62.1832	525.72
62.1976	536.83
62.2121	543.68
62.2265	553.89
62.2410	584.99
62.2554	555.86
62.2698	533.89
62.2843	531.80
62.2987	557.48
62.3132	581.97
62.3276	541.96
62.3420	529.86
62.3565	552.80
62.3709	550.52
62.3854	540.85
62.3998	554.84
62.4142	544.03
62.4287	556.92
62.4431	540.48
62.4576	552.30
62.4720	593.12
62.4864	576.00
62.5009	560.76
62.5153	564.92
62.5298	559.58
62.5442	523.90
62.5586	549.40
62.5731	536.58
62.5875	555.40
62.6020	554.20
62.6164	519.74
62.6308	513.58
62.6453	534.96
62.6597	547.39
62.6742	540.73
62.6886	511.57
62.7030	585.64
62.7175	568.68
62.7319	540.39
62.7464	525.28
62.7608	527.98
62.7752	535.71
62.7897	528.28
62.8041	541.33
62.8186	546.13
62.8330	583.36
62.8474	561.80
62.8619	589.43
62.8763	578.95
62.8908	538.75
62.9052	554.31
62.9196	537.02
62.9341	540.49
62.9485	595.61
62.9630	549.64
62.9774	565.05
62.9918	566.07
63.0063	543.52
63.0207	550.03
63.0352	569.90
63.0496	562.73
63.0640	582.15
63.0785	557.72
63.0929	557.65
63.1074	566.36
63.1218	563.07
63.1362	581.62
63.1507	563.58
63.1651	586.88
63.1796	578.30
63.1940	586.11
63.2084	573.21
63.2229	582.73
63.2373	574.78
63.2518	588.51
63.2662	566.77
63.2806	580.09
63.2951	573.84
63.3095	576.87
63.3240	596.12
63.3384	595.53
63.3528	608.14
63.3673	620.25
63.3817	610.95
63.3962	597.60
63.4106	617.50
63.4250	665.00
63.4395	701.48
63.4539	661.61
63.4684	713.43
63.4828	755.72
63.4972	754.82
63.5117	763.58
63.5261	847.45
63.5406	893.03
63.5550	933.36
63.5694	939.41
63.5839	924.58
63.5983	926.78
63.6128	910.16
63.6272	817.14
63.6416	819.17
63.6561	756.16
63.6705	762.06
63.6850	747.94
63.6994	776.26
63.7138	861.17
63.7283	803.49
63.7427	811.28
63.7572	829.96
63.7716	773.56
63.7861	764.70
63.8005	715.99
63.8149	695.45
63.8294	674.58
63.8438	665.84
63.8583	657.70
63.8727	616.82
63.8871	586.07
63.9016	612.62
63.9160	625.79
63.9305	623.04
63.9449	612.31
63.9593	607.26
63.9738	585.87
63.9882	616.28
64.0027	619.50
64.0171	599.03
64.0315	629.91
64.0460	608.10
64.0604	582.38
64.0749	579.37
64.0893	607.33
64.1037	621.61
64.1182	593.96
64.1326	611.53
64.1471	575.68
64.1615	583.32
64.1759	621.64
64.1904	629.23
64.2048	607.85
64.2193	563.88
64.2337	560.72
64.2481	620.90
64.2626	597.04
64.2770	614.90
64.2915	576.02
64.3059	538.61
64.3203	591.58
64.3348	592.49
64.3492	598.89
64.3637	609.91
64.3781	590.02
64.3925	596.59
64.4070	606.49
64.4214	622.78
64.4359	624.77
64.4503	614.32
64.4647	585.35
64.4792	617.41
64.4936	664.94
64.5081	606.47
64.5225	578.15
64.5369	608.78
64.5514	621.27
64.5658	646.93
64.5803	633.90
64.5947	562.37
64.6091	601.94
64.6236	659.28
64.6380	640.35
64.6525	676.28
64.6669	671.64
64.6813	653.42
64.6958	587.76
64.7102	696.14
64.7247	679.10
64.7391	661.01
64.7535	687.61
64.7680	697.56
64.7824	731.33
64.7969	691.86
64.8113	746.38
64.8257	790.69
64.8402	842.14
64.8546	860.82
64.8691	823.01
64.8835	810.83
64.8979	828.13
64.9124	839.78
64.9268	888.04
64.9413	878.43
64.9557	912.86
64.9701	929.84
64.9846	1041.63
64.9990	1111.15
65.0135	1237.98
65.0279	1408.21
65.0423	1620.48
65.0568	2046.94
65.0712	2493.53
65.0857	3286.64
65.1001	4226.56
65.1145	5765.30
65.1290	7641.37
65.1434	9094.13
65.1579	10651.87
65.1723	11510.90
65.1867	10929.49
65.2012	9929.00
65.2156	8374.89
65.2301	6523.02
65.2445	5270.46
65.2589	4479.75
65.2734	4165.26
65.2878	4231.43
65.3023	4723.25
65.3167	5503.90
65.3311	6416.99
65.3456	6906.67
65.3600	6764.94
65.3745	6258.85
65.3889	5468.71
65.4033	4480.83
65.4178	3518.83
65.4322	2764.00
65.4467	2077.96
65.4611	1736.34
65.4755	1482.18
65.4900	1221.92
65.5044	1134.71
65.5189	1031.39
65.5333	965.72
65.5477	916.43
65.5622	905.48
65.5766	841.58
65.5911	815.13
65.6055	807.48
65.6199	778.36
65.6344	781.81
65.6488	762.12
65.6633	728.45
65.6777	705.66
65.6921	705.07
65.7066	710.46
65.7210	721.81
65.7355	679.22
65.7499	699.85
65.7643	684.28
65.7788	661.44
65.7932	657.17
65.8077	709.81
65.8221	663.73
65.8365	625.57
65.8510	611.70
65.8654	642.38
65.8799	640.65
65.8943	654.02
65.9087	631.13
65.9232	626.22
65.9376	588.39
65.9521	586.47
65.9665	647.27
65.9809	633.88
65.9954	652.76
66.0098	578.94
66.0243	641.19
66.0387	610.87
66.0531	625.15
66.0676	615.35
66.0820	620.47
66.0965	673.55
66.1109	611.04
66.1253	649.13
66.1398	591.95
66.1542	608.04
66.1687	646.16
66.1831	628.37
66.1975	611.02
66.2120	614.41
66.2264	609.43
66.2409	585.55
66.2553	601.64
66.2697	584.54
66.2842	581.68
66.2986	594.65
66.3131	605.79
66.3275	596.04
66.3419	581.69
66.3564	603.97
66.3708	557.04
66.3853	592.02
66.3997	586.18
66.4141	615.09
66.4286	636.30
66.4430	594.33
66.4575	596.90
66.4719	612.75
66.4863	555.42
66.5008	567.40
66.5152	554.05
66.5297	552.39
66.5441	580.68
66.5585	608.75
66.5730	644.93
66.5874	633.33
66.6019	571.85
66.6163	585.09
66.6307	584.56
66.6452	598.20
66.6596	604.66
66.6741	615.64
66.6885	612.38
66.7029	614.80
66.7174	583.67
66.7318	581.47
66.7463	572.68
66.7607	570.33
66.7751	594.48
66.7896	598.10
66.8040	623.02
66.8185	597.12
66.8329	546.74
66.8473	572.20
66.8618	618.50
66.8762	603.31
66.8907	611.14
66.9051	614.95
66.9195	563.57
66.9340	570.51
66.9484	585.77
66.9629	574.70
66.9773	593.16
66.9917	573.03
67.0062	549.16
67.0206	562.13
67.0351	557.68
67.0495	546.89
67.0639	576.58
67.0784	570.71
67.0928	576.17
67.1073	593.82
67.1217	603.30
67.1361	598.64
67.1506	583.29
67.1650	590.73
67.1795	619.67
67.1939	589.47
67.2083	588.89
67.2228	614.36
67.2372	584.50
67.2517	585.21
67.2661	568.94
67.2805	598.16
67.2950	575.73
67.3094	588.01
67.3239	575.85
67.3383	582.76
67.3527	578.15
67.3672	561.22
67.3816	557.31
67.3961	585.48
67.4105	516.90
67.4250	596.11
67.4394	612.08
67.4538	574.48
67.4683	591.37
67.4827	574.85
67.4972	568.95
67.5116	594.50
67.5260	591.74
67.5405	559.05
67.5549	594.99
67.5694	564.96
67.5838	551.93
67.5982	570.81
67.6127	591.76
67.6271	601.47
67.6416	596.51
67.6560	542.35
67.6704	563.01
67.6849	572.60
67.6993	593.33
67.7138	582.33
67.7282	553.86
67.7426	553.71
67.7571	575.34
67.7715	560.58
67.7860	588.00
67.8004	577.67
67.8148	553.78
67.8293	567.51
67.8437	582.14
67.8582	559.23
67.8726	598.20
67.8870	583.63
67.9015	594.64
67.9159	542.98
67.9304	589.58
67.9448	574.61
67.9592	583.63
67.9737	545.98
67.9881	599.52
68.0026	564.68
68.0170	607.60
68.0314	579.84
68.0459	597.20
68.0603	575.43
68.0748	600.17
68.0892	567.36
68.1036	559.89
68.1181	549.91
68.1325	566.78
68.1470	516.31
68.1614	550.30
68.1758	550.03
68.1903	567.39
68.2047	593.25
68.2192	569.48
68.2336	560.27
68.2480	593.44
68.2625	530.25
68.2769	502.88
68.2914	589.31
68.3058	583.24
68.3202	542.86
68.3347	573.54
68.3491	621.11
68.3636	557.87
68.3780	560.35
68.3924	538.23
68.4069	523.40
68.4213	565.49
68.4358	556.02
68.4502	564.00
68.4646	573.78
68.4791	561.05
68.4935	577.15
68.5080	612.19
68.5224	596.10
68.5368	629.70
68.5513	598.58
68.5657	562.71
68.5802	560.00
68.5946	614.14
68.6090	540.34
68.6235	545.59
68.6379	572.71
68.6524	571.54
68.6668	547.70
68.6812	544.26
68.6957	570.46
68.7101	569.95
68.7246	576.77
68.7390	594.06
68.7534	536.11
68.7679	553.30
68.7823	551.05
68.7968	578.75
68.8112	576.90
68.8256	588.69
68.8401	607.48
68.8545	585.27
68.8690	564.87
68.8834	579.61
68.8978	582.63
68.9123	593.64
68.9267	597.83
68.9412	575.71
68.9556	564.82
68.9700	560.54
68.9845	544.47
68.9989	564.39
69.0134	579.26
69.0278	574.73
69.0422	562.76
69.0567	593.78
69.0711	588.20
69.0856	607.13
69.1000	558.91
69.1144	574.20
69.1289	576.92
69.1433	552.61
69.1578	566.46
69.1722	556.13
69.1866	585.03
69.2011	560.28
69.2155	618.77
69.2300	603.45
69.2444	568.36
69.2588	562.58
69.2733	546.65
69.2877	580.65
69.3022	576.97
69.3166	574.37
69.3310	623.66
69.3455	597.36
69.3599	559.32
69.3744	577.31
69.3888	574.25
69.4032	572.96
69.4177	568.01
69.4321	592.38
69.4466	594.24
69.4610	533.70
69.4754	553.88
69.4899	602.30
69.5043	580.38
69.5188	533.24
69.5332	588.79
69.5476	562.00
69.5621	586.44
69.5765	545.72
69.5910	533.23
69.6054	586.30
69.6198	589.94
69.6343	567.97
69.6487	568.30
69.6632	582.39
69.6776	555.73
69.6920	609.39
69.7065	597.59
69.7209	562.00
69.7354	557.80
69.7498	547.82
69.7642	529.53
69.7787	585.45
69.7931	595.89
69.8076	553.92
69.8220	574.10
69.8364	573.63
69.8509	573.25
69.8653	570.36
69.8798	584.26
69.8942	572.56
69.9086	548.24
69.9231	576.08
69.9375	585.72
69.9520	627.46
69.9664	578.71
69.9808	571.12
69.9953	544.03
70.0097	566.53
70.0242	580.39
70.0386	572.92
70.0530	563.24
70.0675	602.34
70.0819	591.85
70.0964	604.14
70.1108	566.21
70.1252	616.69
70.1397	561.19
70.1541	582.06
70.1686	607.71
70.1830	567.50
70.1974	565.65
70.2119	520.54
70.2263	525.38
70.2408	537.69
70.2552	507.69
70.2696	578.85
70.2841	596.60
70.2985	573.93
70.3130	556.78
70.3274	631.96
70.3418	571.50
70.3563	583.65
70.3707	542.24
70.3852	558.51
70.3996	545.01
70.4140	549.80
70.4285	565.02
70.4429	521.16
70.4574	563.26
70.4718	624.09
70.4862	641.93
70.5007	578.09
70.5151	537.12
70.5296	558.31
70.5440	599.62
70.5584	630.02
70.5729	575.32
70.5873	534.62
70.6018	551.09
70.6162	533.78
70.6306	542.54
70.6451	561.77
70.6595	567.68
70.6740	574.37
70.6884	565.89
70.7028	586.99
70.7173	602.28
70.7317	563.86
70.7462	595.18
70.7606	576.01
70.7750	565.82
70.7895	537.36
70.8039	559.07
70.8184	601.43
70.8328	596.90
70.8472	546.19
70.8617	592.85
70.8761	587.74
70.8906	585.07
70.9050	593.11
70.9194	538.07
70.9339	581.59
70.9483	628.28
70.9628	602.64
70.9772	602.00
70.9916	576.27
71.0061	555.31
71.0205	562.38
71.0350	535.21
71.0494	574.46
71.0638	610.25
71.0783	597.98
71.0927	646.07
71.1072	659.88
71.1216	629.44
71.1361	607.80
71.1505	590.69
71.1649	563.54
71.1794	576.48
71.1938	586.39
71.2083	574.25
71.2227	580.81
71.2371	649.49
71.2516	646.51
71.2660	619.72
71.2805	590.01
71.2949	531.75
71.3093	545.00
71.3238	577.97
71.3382	603.89
71.3527	626.57
71.3671	557.46
71.3815	613.94
71.3960	586.50
71.4104	556.29
71.4249	589.51
71.4393	636.39
71.4537	621.35
71.4682	572.34
71.4826	554.88
71.4971	582.66
71.5115	572.15
71.5259	544.40
71.5404	551.70
71.5548	613.18
71.5693	582.98
71.5837	560.28
71.5981	549.45
71.6126	523.41
71.6270	541.53
71.6415	536.70
71.6559	556.59
71.6703	578.27
71.6848	573.45
71.6992	646.18
71.7137	601.11
71.7281	561.65
71.7425	605.87
71.7570	555.78
71.7714	559.26
71.7859	573.45
71.8003	600.38
71.8147	584.98
71.8292	638.57
71.8436	587.50
71.8581	536.07
71.8725	566.43
71.8869	540.60
71.9014	596.63
71.9158	589.59
71.9303	616.00
71.9447	671.91
71.9591	593.51
71.9736	529.18
71.9880	552.09
72.0025	547.15
72.0169	570.13
72.0313	572.75
72.0458	550.30
72.0602	613.50
72.0747	579.06
72.0891	512.31
72.1035	581.27
72.1180	587.13
72.1324	567.23
72.1469	649.78
72.1613	655.19
72.1757	596.77
72.1902	614.83
72.2046	586.09
72.2191	521.40
72.2335	483.04
72.2479	547.23
72.2624	616.63
72.2768	621.84
72.2913	567.36
72.3057	561.84
72.3201	565.68
72.3346	593.01
72.3490	574.08
72.3635	559.57
72.3779	550.34
72.3923	611.51
72.4068	648.54
72.4212	643.06
72.4357	607.52
72.4501	562.79
72.4645	635.91
72.4790	636.97
72.4934	527.80
72.5079	533.99
72.5223	590.63
72.5367	593.88
72.5512	587.57
72.5656	628.43
72.5801	584.63
72.5945	610.68
72.6089	610.86
72.6234	567.38
72.6378	533.20
72.6523	588.76
72.6667	600.78
72.6811	570.64
72.6956	513.61
72.7100	568.09
72.7245	583.54
72.7389	658.49
72.7533	593.91
72.7678	496.98
72.7822	595.56
72.7967	544.67
72.8111	540.14
72.8255	595.75
72.8400	585.31
72.8544	563.36
72.8689	539.29
72.8833	533.79