2022.09.19 19:37:17
Îáðàçåö: ß÷åéêà LCoV 16-09-2022
Lambda1 = 1.54060
Lambda2 = 1.54439
Lambdam = 1.54186
R = 0.497
2Theta	I

line¹ 0 ;repeat¹ 0
22.1120	598.61
22.1264	553.61
22.1409	518.17
22.1553	435.81
22.1697	525.59
22.1842	565.12
22.1986	560.15
22.2131	530.24
22.2275	534.46
22.2419	605.41
22.2564	660.57
22.2708	629.92
22.2853	573.80
22.2997	458.31
22.3141	589.95
22.3286	522.66
22.3430	612.27
22.3575	622.30
22.3719	629.82
22.3863	537.96
22.4008	600.38
22.4152	578.16
22.4297	608.08
22.4441	641.04
22.4585	599.99
22.4730	676.70
22.4874	634.19
22.5019	565.92
22.5163	574.18
22.5307	625.93
22.5452	519.45
22.5596	542.11
22.5741	553.93
22.5885	588.74
22.6029	599.59
22.6174	533.92
22.6318	565.10
22.6463	542.22
22.6607	486.88
22.6751	565.85
22.6896	613.61
22.7040	575.90
22.7185	529.09
22.7329	529.09
22.7473	529.09
22.7618	536.49
22.7762	575.56
22.7907	598.86
22.8051	541.09
22.8195	587.62
22.8340	530.64
22.8484	547.72
22.8629	542.10
22.8773	552.01
22.8917	556.54
22.9062	626.84
22.9206	506.03
22.9351	560.70
22.9495	575.03
22.9639	598.02
22.9784	595.57
22.9928	532.02
23.0073	516.32
23.0217	512.73
23.0361	555.44
23.0506	517.37
23.0650	518.29
23.0795	472.69
23.0939	515.08
23.1083	597.66
23.1228	538.92
23.1372	537.48
23.1517	549.75
23.1661	537.54
23.1806	521.47
23.1950	536.79
23.2094	544.62
23.2239	521.82
23.2383	502.15
23.2528	592.40
23.2672	534.89
23.2816	569.24
23.2961	604.85
23.3105	542.98
23.3250	616.07
23.3394	593.77
23.3538	574.53
23.3683	593.72
23.3827	508.87
23.3972	509.22
23.4116	563.91
23.4260	619.67
23.4405	558.98
23.4549	520.18
23.4694	584.87
23.4838	505.95
23.4982	530.69
23.5127	515.89
23.5271	500.46
23.5416	521.15
23.5560	566.90
23.5704	524.79
23.5849	537.09
23.5993	532.86
23.6138	573.70
23.6282	502.94
23.6426	568.12
23.6571	593.53
23.6715	534.30
23.6860	468.04
23.7004	535.28
23.7148	587.46
23.7293	614.51
23.7437	532.85
23.7582	505.87
23.7726	546.57
23.7870	595.42
23.8015	534.39
23.8159	535.16
23.8304	503.89
23.8448	556.11
23.8592	588.83
23.8737	621.16
23.8881	560.87
23.9026	553.24
23.9170	581.06
23.9314	553.98
23.9459	569.83
23.9603	513.38
23.9748	598.70
23.9892	524.07
24.0036	475.42
24.0181	547.11
24.0325	548.59
24.0470	604.18
24.0614	571.88
24.0758	549.28
24.0903	576.68
24.1047	586.34
24.1192	572.78
24.1336	539.42
24.1480	511.09
24.1625	575.84
24.1769	557.93
24.1914	581.79
24.2058	576.51
24.2202	594.23
24.2347	630.16
24.2491	595.64
24.2636	575.87
24.2780	576.04
24.2924	584.20
24.3069	557.92
24.3213	568.50
24.3358	574.57
24.3502	564.55
24.3646	526.89
24.3791	535.87
24.3935	523.01
24.4080	588.41
24.4224	528.00
24.4368	590.45
24.4513	561.87
24.4657	551.16
24.4802	522.36
24.4946	583.11
24.5090	535.55
24.5235	488.56
24.5379	474.21
24.5524	524.04
24.5668	530.00
24.5812	541.89
24.5957	584.30
24.6101	605.79
24.6246	549.63
24.6390	559.63
24.6534	553.46
24.6679	523.75
24.6823	559.84
24.6968	584.22
24.7112	608.57
24.7256	574.27
24.7401	540.10
24.7545	591.73
24.7690	517.63
24.7834	536.67
24.7978	538.41
24.8123	579.47
24.8267	613.98
24.8412	543.93
24.8556	573.67
24.8700	616.87
24.8845	539.82
24.8989	497.21
24.9134	525.87
24.9278	513.98
24.9422	526.75
24.9567	544.48
24.9711	552.28
24.9856	553.64
25.0000	534.26
25.0144	549.06
25.0289	528.72
25.0433	509.15
25.0578	520.21
25.0722	525.46
25.0866	575.75
25.1011	524.12
25.1155	554.65
25.1300	561.00
25.1444	517.84
25.1588	531.86
25.1733	523.65
25.1877	502.66
25.2022	545.42
25.2166	547.05
25.2310	527.61
25.2455	533.40
25.2599	500.29
25.2744	511.05
25.2888	538.72
25.3032	535.37
25.3177	533.12
25.3321	530.80
25.3466	571.54
25.3610	544.70
25.3754	537.26
25.3899	506.29
25.4043	501.91
25.4188	503.93
25.4332	571.00
25.4476	483.26
25.4621	519.06
25.4765	523.34
25.4910	550.46
25.5054	557.31
25.5198	573.12
25.5343	558.06
25.5487	571.61
25.5632	552.56
25.5776	539.90
25.5920	513.39
25.6065	579.51
25.6209	569.61
25.6354	539.81
25.6498	516.93
25.6642	574.45
25.6787	521.43
25.6931	536.60
25.7076	536.89
25.7220	538.53
25.7364	557.07
25.7509	535.83
25.7653	541.98
25.7798	536.45
25.7942	544.20
25.8086	542.64
25.8231	551.53
25.8375	579.95
25.8520	578.32
25.8664	589.78
25.8808	522.32
25.8953	513.74
25.9097	537.16
25.9242	524.55
25.9386	557.41
25.9530	521.17
25.9675	508.06
25.9819	580.46
25.9964	599.65
26.0108	536.64
26.0252	509.05
26.0397	513.42
26.0541	537.00
26.0686	518.95
26.0830	554.07
26.0974	500.37
26.1119	528.14
26.1263	549.57
26.1408	535.59
26.1552	536.81
26.1696	539.53
26.1841	525.48
26.1985	501.58
26.2130	536.54
26.2274	514.39
26.2418	517.53
26.2563	540.13
26.2707	544.93
26.2852	559.70
26.2996	555.42
26.3140	527.66
26.3285	510.84
26.3429	544.84
26.3574	521.44
26.3718	519.04
26.3862	514.11
26.4007	545.77
26.4151	524.16
26.4296	522.94
26.4440	501.24
26.4584	507.26
26.4729	543.29
26.4873	536.91
26.5018	540.10
26.5162	547.11
26.5306	545.84
26.5451	534.32
26.5595	519.92
26.5740	504.12
26.5884	514.70
26.6028	555.32
26.6173	518.61
26.6317	532.15
26.6462	533.14
26.6606	538.52
26.6750	505.08
26.6895	537.95
26.7039	551.59
26.7184	546.42
26.7328	526.99
26.7472	531.10
26.7617	532.37
26.7761	519.31
26.7906	524.15
26.8050	539.69
26.8194	523.42
26.8339	489.13
26.8483	481.42
26.8628	516.71
26.8772	522.75
26.8917	525.02
26.9061	559.48
26.9205	516.25
26.9350	528.30
26.9494	525.09
26.9639	507.56
26.9783	503.43
26.9927	518.46
27.0072	509.68
27.0216	509.95
27.0361	520.82
27.0505	530.51
27.0649	521.82
27.0794	531.21
27.0938	513.39
27.1083	487.59
27.1227	495.70
27.1371	512.72
27.1516	514.46
27.1660	550.68
27.1805	577.19
27.1949	505.29
27.2093	523.09
27.2238	512.75
27.2382	524.97
27.2527	516.64
27.2671	502.50
27.2815	548.20
27.2960	495.98
27.3104	514.18
27.3249	537.63
27.3393	527.15
27.3537	534.05
27.3682	515.81
27.3826	546.27
27.3971	524.14
27.4115	509.19
27.4259	540.83
27.4404	512.61
27.4548	525.16
27.4693	506.09
27.4837	482.28
27.4981	507.64
27.5126	526.52
27.5270	519.99
27.5415	525.92
27.5559	492.52
27.5703	501.31
27.5848	517.40
27.5992	495.29
27.6137	511.79
27.6281	511.47
27.6425	514.92
27.6570	534.10
27.6714	509.90
27.6859	503.34
27.7003	519.90
27.7147	504.53
27.7292	496.54
27.7436	501.33
27.7581	510.64
27.7725	501.90
27.7869	492.17
27.8014	516.87
27.8158	512.36
27.8303	535.12
27.8447	524.01
27.8591	521.23
27.8736	496.28
27.8880	514.02
27.9025	536.40
27.9169	532.04
27.9313	526.52
27.9458	525.06
27.9602	512.78
27.9747	508.98
27.9891	515.24
28.0035	497.46
28.0180	498.51
28.0324	520.90
28.0469	518.01
28.0613	513.30
28.0757	515.49
28.0902	529.56
28.1046	495.46
28.1191	540.68
28.1335	504.03
28.1479	500.67
28.1624	502.59
28.1768	528.82
28.1913	504.30
28.2057	497.48
28.2201	544.89
28.2346	501.41
28.2490	520.70
28.2635	498.00
28.2779	469.85
28.2923	512.42
28.3068	515.03
28.3212	502.01
28.3357	553.28
28.3501	527.16
28.3645	503.72
28.3790	506.97
28.3934	475.00
28.4079	507.18
28.4223	508.12
28.4367	505.49
28.4512	491.96
28.4656	489.64
28.4801	490.35
28.4945	523.61
28.5089	501.01
28.5234	502.66
28.5378	534.28
28.5523	516.07
28.5667	503.13
28.5811	517.68
28.5956	486.89
28.6100	510.87
28.6245	485.69
28.6389	523.30
28.6533	531.21
28.6678	504.97
28.6822	517.85
28.6967	491.75
28.7111	491.14
28.7255	523.12
28.7400	506.62
28.7544	493.07
28.7689	510.08
28.7833	517.98
28.7977	512.26
28.8122	492.67
28.8266	523.39
28.8411	512.03
28.8555	493.34
28.8699	519.56
28.8844	517.04
28.8988	529.91
28.9133	518.56
28.9277	532.06
28.9421	508.02
28.9566	470.58
28.9710	528.28
28.9855	500.94
28.9999	468.13
29.0143	492.27
29.0288	478.55
29.0432	476.04
29.0577	546.48
29.0721	511.23
29.0865	554.15
29.1010	494.75
29.1154	486.79
29.1299	494.96
29.1443	496.51
29.1587	496.88
29.1732	472.06
29.1876	475.97
29.2021	488.94
29.2165	496.74
29.2309	465.89
29.2454	518.32
29.2598	470.56
29.2743	528.85
29.2887	516.70
29.3031	536.68
29.3176	482.92
29.3320	492.97
29.3465	493.18
29.3609	514.83
29.3753	510.44
29.3898	509.51
29.4042	488.60
29.4187	529.48
29.4331	514.73
29.4475	486.37
29.4620	503.39
29.4764	539.58
29.4909	517.98
29.5053	498.38
29.5197	479.40
29.5342	498.17
29.5486	514.21
29.5631	496.67
29.5775	526.95
29.5919	547.81
29.6064	507.74
29.6208	509.04
29.6353	535.17
29.6497	502.83
29.6641	508.83
29.6786	498.18
29.6930	492.54
29.7075	492.52
29.7219	491.93
29.7363	524.62
29.7508	488.58
29.7652	483.07
29.7797	472.05
29.7941	500.99
29.8085	505.79
29.8230	515.16
29.8374	514.96
29.8519	523.85
29.8663	528.51
29.8807	528.11
29.8952	530.94
29.9096	473.26
29.9241	479.24
29.9385	500.10
29.9529	520.32
29.9674	498.09
29.9818	460.35
29.9963	484.79
30.0107	514.41
30.0251	530.13
30.0396	555.60
30.0540	544.35
30.0685	479.10
30.0829	468.90
30.0973	500.67
30.1118	502.37
30.1262	533.27
30.1407	523.30
30.1551	529.23
30.1695	534.96
30.1840	495.05
30.1984	483.94
30.2129	515.39
30.2273	515.94
30.2417	502.58
30.2562	516.65
30.2706	504.46
30.2851	507.84
30.2995	502.82
30.3139	521.52
30.3284	492.18
30.3428	521.59
30.3573	517.65
30.3717	510.27
30.3861	486.28
30.4006	541.69
30.4150	537.91
30.4295	540.57
30.4439	550.78
30.4583	531.58
30.4728	604.60
30.4872	581.69
30.5017	620.22
30.5161	639.67
30.5305	684.74
30.5450	728.91
30.5594	781.83
30.5739	771.11
30.5883	729.20
30.6028	756.83
30.6172	720.72
30.6316	706.23
30.6461	686.07
30.6605	644.86
30.6750	639.66
30.6894	618.60
30.7038	604.15
30.7183	574.36
30.7327	556.51
30.7472	550.52
30.7616	534.76
30.7760	554.01
30.7905	551.41
30.8049	546.39
30.8194	526.66
30.8338	547.89
30.8482	508.11
30.8627	533.90
30.8771	503.36
30.8916	523.65
30.9060	535.51
30.9204	508.81
30.9349	515.72
30.9493	512.83
30.9638	509.97
30.9782	501.49
30.9926	496.35
31.0071	512.41
31.0215	525.67
31.0360	501.16
31.0504	485.78
31.0648	516.18
31.0793	511.73
31.0937	515.07
31.1082	513.30
31.1226	497.46
31.1370	526.37
31.1515	519.92
31.1659	525.94
31.1804	497.32
31.1948	516.29
31.2092	526.88
31.2237	502.44
31.2381	519.02
31.2526	518.94
31.2670	515.15
31.2814	537.79
31.2959	543.41
31.3103	528.35
31.3248	535.24
31.3392	525.88
31.3536	521.20
31.3681	533.68
31.3825	528.14
31.3970	522.03
31.4114	511.53
31.4258	541.11
31.4403	494.40
31.4547	482.22
31.4692	510.73
31.4836	518.63
31.4980	499.87
31.5125	482.26
31.5269	504.32
31.5414	521.43
31.5558	512.91
31.5702	526.32
31.5847	471.53
31.5991	515.82
31.6136	543.88
31.6280	534.43
31.6424	527.58
31.6569	524.33
31.6713	533.39
31.6858	482.38
31.7002	488.92
31.7146	499.93
31.7291	497.57
31.7435	555.93
31.7580	544.57
31.7724	480.44
31.7868	492.01
31.8013	492.89
31.8157	530.33
31.8302	496.42
31.8446	479.58
31.8590	509.74
31.8735	512.51
31.8879	469.19
31.9024	500.58
31.9168	516.69
31.9312	509.84
31.9457	516.07
31.9601	507.07
31.9746	521.62
31.9890	523.91
32.0034	494.63
32.0179	521.55
32.0323	504.27
32.0468	497.74
32.0612	542.96
32.0756	512.28
32.0901	473.10
32.1045	452.01
32.1190	535.77
32.1334	537.44
32.1478	471.27
32.1623	487.88
32.1767	485.18
32.1912	488.03
32.2056	486.43
32.2200	520.30
32.2345	496.88
32.2489	511.31
32.2634	454.35
32.2778	530.02
32.2922	539.97
32.3067	534.20
32.3211	513.68
32.3356	502.99
32.3500	505.07
32.3644	521.68
32.3789	479.33
32.3933	464.94
32.4078	488.39
32.4222	505.66
32.4366	505.31
32.4511	503.91
32.4655	502.81
32.4800	490.36
32.4944	529.40
32.5088	493.89
32.5233	466.74
32.5377	498.88
32.5522	530.32
32.5666	505.60
32.5810	510.30
32.5955	501.14
32.6099	508.23
32.6244	519.56
32.6388	495.18
32.6532	472.06
32.6677	522.32
32.6821	487.49
32.6966	485.40
32.7110	500.67
32.7254	509.61
32.7399	487.16
32.7543	501.86
32.7688	533.21
32.7832	529.89
32.7976	516.83
32.8121	515.95
32.8265	505.90
32.8410	511.68
32.8554	476.73
32.8698	514.17
32.8843	503.76
32.8987	506.07
32.9132	475.66
32.9276	469.76
32.9420	472.71
32.9565	489.70
32.9709	513.84
32.9854	500.74
32.9998	529.27
33.0142	511.62
33.0287	504.04
33.0431	488.99
33.0576	478.95
33.0720	521.85
33.0864	498.03
33.1009	456.19
33.1153	499.06
33.1298	488.18
33.1442	474.06
33.1586	492.22
33.1731	515.75
33.1875	489.78
33.2020	484.34
33.2164	514.76
33.2308	524.70
33.2453	517.16
33.2597	524.22
33.2742	482.63
33.2886	490.57
33.3030	511.14
33.3175	514.98
33.3319	484.15
33.3464	518.92
33.3608	510.02
33.3752	505.44
33.3897	482.22
33.4041	490.51
33.4186	505.10
33.4330	498.39
33.4474	483.28
33.4619	502.17
33.4763	500.61
33.4908	509.36
33.5052	518.18
33.5196	486.09
33.5341	495.53
33.5485	480.39
33.5630	503.78
33.5774	498.55
33.5918	525.11
33.6063	548.65
33.6207	517.36
33.6352	546.06
33.6496	524.61
33.6640	491.60
33.6785	475.73
33.6929	491.01
33.7074	502.25
33.7218	498.37
33.7362	472.45
33.7507	501.18
33.7651	507.40
33.7796	520.37
33.7940	518.22
33.8084	502.95
33.8229	511.77
33.8373	517.48
33.8518	490.29
33.8662	484.04
33.8806	480.54
33.8951	526.32
33.9095	505.11
33.9240	479.99
33.9384	497.99
33.9528	500.02
33.9673	501.39
33.9817	493.04
33.9962	516.64
34.0106	492.23
34.0250	492.06
34.0395	522.53
34.0539	529.63
34.0684	505.75
34.0828	523.28
34.0972	513.76
34.1117	479.44
34.1261	503.93
34.1406	499.07
34.1550	478.57
34.1694	491.83
34.1839	504.81
34.1983	481.50
34.2128	474.14
34.2272	519.69
34.2417	518.33
34.2561	481.15
34.2705	527.00
34.2850	495.28
34.2994	479.73
34.3139	504.85
34.3283	484.61
34.3427	508.77
34.3572	482.50
34.3716	492.88
34.3861	496.28
34.4005	500.54
34.4149	478.50
34.4294	494.14
34.4438	510.92
34.4583	493.56
34.4727	512.60
34.4871	509.05
34.5016	509.02
34.5160	524.00
34.5305	499.35
34.5449	509.73
34.5593	548.73
34.5738	500.87
34.5882	507.79
34.6027	516.27
34.6171	504.04
34.6315	501.41
34.6460	503.48
34.6604	547.07
34.6749	498.50
34.6893	492.04
34.7037	495.82
34.7182	464.32
34.7326	501.41
34.7471	497.95
34.7615	481.33
34.7759	504.06
34.7904	490.69
34.8048	483.37
34.8193	489.68
34.8337	513.52
34.8481	522.31
34.8626	509.29
34.8770	529.87
34.8915	517.34
34.9059	512.32
34.9203	512.22
34.9348	500.56
34.9492	486.97
34.9637	492.79
34.9781	494.72
34.9925	497.43
35.0070	507.94
35.0214	506.98
35.0359	505.06
35.0503	495.45
35.0647	478.41
35.0792	511.47
35.0936	561.45
35.1081	533.97
35.1225	503.37
35.1369	498.12
35.1514	478.03
35.1658	526.08
35.1803	511.14
35.1947	508.03
35.2091	492.41
35.2236	532.05
35.2380	512.59
35.2525	513.05
35.2669	503.01
35.2813	519.41
35.2958	501.10
35.3102	523.01
35.3247	501.95
35.3391	484.69
35.3535	521.53
35.3680	512.86
35.3824	529.31
35.3969	534.39
35.4113	522.66
35.4257	543.06
35.4402	510.59
35.4546	522.45
35.4691	524.23
35.4835	542.31
35.4979	529.70
35.5124	523.87
35.5268	541.92
35.5413	552.98
35.5557	541.06
35.5701	557.41
35.5846	538.58
35.5990	537.09
35.6135	495.55
35.6279	528.90
35.6423	556.09
35.6568	558.16
35.6712	554.56
35.6857	604.60
35.7001	697.27
35.7145	783.11
35.7290	729.42
35.7434	648.40
35.7579	639.38
35.7723	626.75
35.7867	672.68
35.8012	763.20
35.8156	755.03
35.8301	713.29
35.8445	756.59
35.8589	772.20
35.8734	878.47
35.8878	979.36
35.9023	1089.13
35.9167	1093.82
35.9311	1170.26
35.9456	1492.11
35.9600	1815.71
35.9745	2008.93
35.9889	2188.82
36.0033	2564.01
36.0178	3003.76
36.0322	3049.04
36.0467	2905.68
36.0611	2268.70
36.0755	1994.03
36.0900	2294.59
36.1044	2421.54
36.1189	1851.37
36.1333	1304.14
36.1477	1117.54
36.1622	1074.96
36.1766	979.77
36.1911	856.16
36.2055	766.51
36.2199	749.11
36.2344	709.61
36.2488	707.66
36.2633	598.94
36.2777	535.25
36.2921	511.58
36.3066	517.86
36.3210	538.08
36.3355	572.81
36.3499	541.54
36.3643	520.31
36.3788	532.41
36.3932	525.64
36.4077	534.17
36.4221	503.42
36.4365	537.04
36.4510	509.64
36.4654	532.72
36.4799	548.98
36.4943	546.09
36.5087	508.83
36.5232	536.43
36.5376	555.50
36.5521	502.41
36.5665	541.68
36.5809	538.43
36.5954	539.83
36.6098	509.15
36.6243	515.86
36.6387	520.14
36.6531	515.37
36.6676	519.76
36.6820	514.57
36.6965	501.05
36.7109	563.19
36.7253	542.93
36.7398	518.01
36.7542	548.24
36.7687	537.32
36.7831	547.12
36.7975	550.46
36.8120	543.26
36.8264	552.71
36.8409	573.93
36.8553	601.13
36.8697	603.25
36.8842	587.45
36.8986	620.19
36.9131	600.56
36.9275	519.89
36.9419	564.01
36.9564	544.21
36.9708	504.23
36.9853	551.98
36.9997	561.57
37.0141	533.70
37.0286	547.21
37.0430	523.51
37.0575	533.21
37.0719	495.77
37.0863	510.46
37.1008	527.67
37.1152	501.76
37.1297	527.78
37.1441	511.94
37.1585	532.48
37.1730	518.72
37.1874	516.96
37.2019	466.48
37.2163	492.37
37.2307	485.31
37.2452	501.50
37.2596	492.72
37.2741	489.98
37.2885	524.75
37.3029	512.04
37.3174	539.65
37.3318	527.68
37.3463	522.29
37.3607	501.97
37.3751	488.89
37.3896	482.65
37.4040	460.10
37.4185	464.38
37.4329	511.84
37.4473	491.20
37.4618	505.61
37.4762	539.62
37.4907	534.40
37.5051	483.29
37.5195	492.09
37.5340	535.60
37.5484	502.07
37.5629	517.14
37.5773	499.90
37.5917	483.58
37.6062	495.36
37.6206	510.94
37.6351	498.27
37.6495	486.23
37.6639	483.54
37.6784	503.81
37.6928	525.73
37.7073	538.24
37.7217	561.68
37.7361	507.49
37.7506	522.91
37.7650	506.51
37.7795	530.35
37.7939	521.68
37.8083	501.30
37.8228	487.46
37.8372	544.58
37.8517	532.77
37.8661	501.63
37.8805	514.09
37.8950	504.37
37.9094	500.23
37.9239	493.60
37.9383	541.20
37.9528	502.65
37.9672	514.71
37.9816	507.81
37.9961	494.52
38.0105	516.53
38.0250	524.45
38.0394	482.91
38.0538	483.47
38.0683	498.09
38.0827	487.74
38.0972	502.86
38.1116	508.07
38.1260	501.94
38.1405	499.24
38.1549	496.91
38.1694	495.33
38.1838	465.16
38.1982	476.45
38.2127	532.61
38.2271	516.59
38.2416	479.97
38.2560	490.04
38.2704	516.65
38.2849	500.61
38.2993	486.44
38.3138	469.61
38.3282	514.68
38.3426	502.29
38.3571	499.89
38.3715	519.70
38.3860	543.26
38.4004	523.73
38.4148	567.22
38.4293	571.31
38.4437	557.11
38.4582	593.92
38.4726	612.34
38.4870	673.21
38.5015	729.16
38.5159	789.07
38.5304	776.35
38.5448	750.00
38.5592	794.20
38.5737	759.30
38.5881	738.44
38.6026	669.92
38.6170	709.63
38.6314	723.64
38.6459	673.47
38.6603	645.00
38.6748	576.82
38.6892	572.56
38.7036	597.14
38.7181	496.63
38.7325	490.93
38.7470	520.18
38.7614	521.73
38.7758	521.06
38.7903	500.50
38.8047	514.83
38.8192	515.08
38.8336	513.91
38.8480	482.64
38.8625	496.92
38.8769	533.96
38.8914	505.88
38.9058	506.83
38.9202	512.39
38.9347	521.85
38.9491	541.09
38.9636	539.34
38.9780	501.07
38.9924	484.46
39.0069	510.23
39.0213	519.87
39.0358	522.70
39.0502	512.99
39.0646	521.02
39.0791	482.10
39.0935	500.31
39.1080	522.22
39.1224	527.70
39.1368	493.32
39.1513	482.19
39.1657	505.98
39.1802	504.42
39.1946	479.74
39.2090	517.34
39.2235	518.59
39.2379	514.85
39.2524	521.62
39.2668	478.35
39.2812	491.05
39.2957	476.00
39.3101	492.22
39.3246	513.03
39.3390	498.48
39.3534	512.05
39.3679	508.65
39.3823	506.58
39.3968	488.07
39.4112	482.58
39.4256	496.63
39.4401	499.17
39.4545	486.70
39.4690	506.32
39.4834	531.97
39.4978	498.74
39.5123	489.83
39.5267	505.40
39.5412	504.74
39.5556	479.03
39.5700	479.21
39.5845	498.26
39.5989	468.85
39.6134	491.79
39.6278	475.25
39.6422	489.92
39.6567	506.81
39.6711	484.47
39.6856	517.81
39.7000	515.76
39.7144	509.67
39.7289	497.46
39.7433	490.30
39.7578	508.60
39.7722	474.99
39.7866	526.16
39.8011	512.72
39.8155	500.84
39.8300	512.32
39.8444	435.40
39.8588	484.87
39.8733	549.15
39.8877	500.69
39.9022	520.68
39.9166	492.38
39.9310	499.52
39.9455	529.03
39.9599	486.57
39.9744	505.61
39.9888	480.02
40.0032	508.24
40.0177	513.22
40.0321	494.00
40.0466	495.84
40.0610	485.10
40.0754	498.85
40.0899	489.06
40.1043	475.73
40.1188	498.78
40.1332	517.26
40.1476	471.93
40.1621	527.87
40.1765	510.73
40.1910	495.85
40.2054	516.48
40.2198	535.67
40.2343	539.98
40.2487	500.33
40.2632	476.43
40.2776	480.23
40.2920	515.30
40.3065	528.48
40.3209	476.09
40.3354	502.77
40.3498	519.63
40.3642	476.02
40.3787	500.34
40.3931	489.59
40.4076	485.34
40.4220	511.34
40.4364	518.61
40.4509	491.76
40.4653	480.18
40.4798	494.95
40.4942	538.99
40.5086	497.89
40.5231	439.92
40.5375	475.56
40.5520	495.96
40.5664	486.61
40.5808	493.38
40.5953	471.71
40.6097	540.20
40.6242	522.33
40.6386	513.14
40.6530	467.89
40.6675	483.40
40.6819	479.56
40.6964	491.22
40.7108	492.77
40.7252	504.28
40.7397	463.78
40.7541	468.13
40.7686	537.15
40.7830	512.65
40.7974	481.81
40.8119	535.15
40.8263	511.06
40.8408	474.96
40.8552	529.36
40.8696	482.48
40.8841	498.54
40.8985	496.04
40.9130	502.32
40.9274	500.99
40.9418	549.62
40.9563	506.58
40.9707	479.49
40.9852	480.50
40.9996	492.34
41.0140	512.50
41.0285	477.94
41.0429	455.69
41.0574	442.19
41.0718	512.67
41.0862	528.80
41.1007	489.13
41.1151	480.07
41.1296	493.34
41.1440	469.95
41.1584	525.85
41.1729	490.08
41.1873	484.40
41.2018	477.31
41.2162	506.03
41.2306	480.08
41.2451	491.79
41.2595	508.13
41.2740	506.36
41.2884	492.94
41.3028	520.09
41.3173	512.28
41.3317	506.12
41.3462	529.12
41.3606	519.57
41.3750	489.42
41.3895	510.20
41.4039	473.92
41.4184	492.54
41.4328	530.20
41.4472	478.31
41.4617	497.75
41.4761	530.44
41.4906	494.06
41.5050	468.58
41.5194	503.40
41.5339	514.53
41.5483	504.58
41.5628	497.17
41.5772	531.08
41.5916	498.77
41.6061	467.80
41.6205	525.71
41.6350	487.99
41.6494	481.88
41.6639	516.67
41.6783	513.62
41.6927	473.54
41.7072	509.66
41.7216	493.98
41.7361	469.19
41.7505	490.29
41.7649	503.11
41.7794	537.08
41.7938	521.15
41.8083	496.46
41.8227	519.01
41.8371	523.24
41.8516	544.08
41.8660	531.97
41.8805	546.94
41.8949	533.56
41.9093	523.31
41.9238	539.79
41.9382	542.72
41.9527	562.52
41.9671	571.55
41.9815	561.20
41.9960	579.75
42.0104	568.74
42.0249	585.10
42.0393	586.63
42.0537	590.10
42.0682	564.22
42.0826	604.79
42.0971	571.98
42.1115	533.72
42.1259	577.56
42.1404	569.36
42.1548	592.70
42.1693	667.37
42.1837	707.89
42.1981	743.91
42.2126	804.74
42.2270	922.80
42.2415	1027.56
42.2559	1181.70
42.2703	1333.65
42.2848	1468.33
42.2992	1568.30
42.3137	1624.44
42.3281	1600.42
42.3425	1527.45
42.3570	1457.55
42.3714	1359.13
42.3859	1269.46
42.4003	1263.49
42.4147	1291.87
42.4292	1271.59
42.4436	1091.58
42.4581	995.82
42.4725	916.84
42.4869	812.34
42.5014	702.72
42.5158	670.38
42.5303	652.97
42.5447	594.11
42.5591	586.86
42.5736	584.86
42.5880	615.62
42.6025	609.91
42.6169	577.56
42.6313	592.12
42.6458	556.01
42.6602	553.99
42.6747	534.90
42.6891	527.37
42.7035	544.50
42.7180	546.51
42.7324	534.92
42.7469	526.44
42.7613	512.80
42.7757	534.32
42.7902	512.41
42.8046	528.89
42.8191	514.08
42.8335	481.81
42.8479	512.47
42.8624	539.77
42.8768	544.27
42.8913	522.59
42.9057	533.22
42.9201	510.83
42.9346	537.84
42.9490	521.76
42.9635	506.01
42.9779	519.89
42.9923	515.16
43.0068	513.83
43.0212	500.38
43.0357	541.94
43.0501	486.42
43.0645	475.93
43.0790	500.04
43.0934	564.60
43.1079	556.35
43.1223	524.20
43.1367	513.70
43.1512	510.96
43.1656	514.97
43.1801	534.60
43.1945	510.74
43.2089	504.37
43.2234	540.67
43.2378	524.01
43.2523	499.44
43.2667	515.18
43.2811	527.03
43.2956	518.98
43.3100	537.27
43.3245	524.50
43.3389	538.23
43.3533	518.06
43.3678	500.54
43.3822	507.35
43.3967	504.77
43.4111	489.21
43.4255	509.79
43.4400	496.33
43.4544	502.92
43.4689	556.83
43.4833	521.93
43.4977	525.28
43.5122	531.24
43.5266	503.06
43.5411	523.31
43.5555	520.87
43.5699	490.44
43.5844	487.29
43.5988	515.47
43.6133	529.67
43.6277	580.97
43.6421	534.63
43.6566	520.10
43.6710	552.72
43.6855	585.76
43.6999	619.18
43.7143	606.25
43.7288	617.95
43.7432	644.99
43.7577	666.78
43.7721	704.39
43.7865	636.99
43.8010	603.82
43.8154	591.08
43.8299	617.28
43.8443	613.55
43.8587	589.70
43.8732	617.24
43.8876	609.61
43.9021	566.01
43.9165	532.35
43.9309	545.59
43.9454	540.76
43.9598	499.90
43.9743	496.91
43.9887	502.04
44.0031	496.56
44.0176	513.71
44.0320	490.44
44.0465	513.30
44.0609	499.76
44.0753	518.16
44.0898	521.29
44.1042	496.83
44.1187	482.54
44.1331	489.97
44.1475	490.16
44.1620	476.36
44.1764	535.56
44.1909	527.52
44.2053	524.32
44.2197	520.93
44.2342	506.75
44.2486	533.26
44.2631	561.56
44.2775	525.75
44.2919	476.75
44.3064	535.68
44.3208	535.66
44.3353	538.27
44.3497	526.06
44.3641	561.45
44.3786	535.71
44.3930	543.26
44.4075	548.71
44.4219	568.33
44.4363	565.81
44.4508	555.04
44.4652	608.10
44.4797	619.57
44.4941	584.77
44.5085	584.09
44.5230	556.09
44.5374	577.80
44.5519	591.85
44.5663	548.80
44.5807	596.62
44.5952	580.42
44.6096	555.74
44.6241	576.49
44.6385	592.77
44.6529	560.81
44.6674	563.10
44.6818	582.78
44.6963	653.49
44.7107	632.51
44.7251	645.76
44.7396	726.52
44.7540	769.26
44.7685	825.75
44.7829	904.76
44.7973	873.93
44.8118	866.07
44.8262	831.48
44.8407	741.19
44.8551	769.42
44.8695	723.78
44.8840	711.98
44.8984	759.48
44.9129	754.19
44.9273	705.27
44.9417	676.02
44.9562	656.40
44.9706	601.02
44.9851	554.11
44.9995	563.97
45.0139	534.77
45.0284	515.45
45.0428	535.07
45.0573	559.40
45.0717	531.40
45.0861	526.92
45.1006	556.40
45.1150	559.90
45.1295	523.85
45.1439	512.31
45.1583	507.65
45.1728	501.06
45.1872	485.72
45.2017	486.49
45.2161	507.75
45.2305	519.85
45.2450	488.81
45.2594	502.26
45.2739	486.99
45.2883	497.70
45.3028	529.55
45.3172	502.06
45.3316	488.55
45.3461	491.95
45.3605	516.99
45.3750	473.35
45.3894	494.86
45.4038	476.31
45.4183	500.12
45.4327	530.67
45.4472	507.35
45.4616	479.76
45.4760	500.11
45.4905	522.82
45.5049	527.99
45.5194	479.20
45.5338	521.36
45.5482	509.31
45.5627	508.05
45.5771	508.28
45.5916	514.85
45.6060	505.74
45.6204	514.91
45.6349	495.87
45.6493	503.33
45.6638	557.65
45.6782	479.08
45.6926	488.44
45.7071	524.84
45.7215	527.72
45.7360	495.91
45.7504	498.91
45.7648	501.00
45.7793	523.44
45.7937	500.76
45.8082	521.60
45.8226	490.05
45.8370	508.53
45.8515	510.59
45.8659	507.13
45.8804	484.96
45.8948	465.07
45.9092	510.16
45.9237	515.38
45.9381	500.01
45.9526	481.98
45.9670	486.20
45.9814	514.93
45.9959	491.86
46.0103	475.53
46.0248	466.42
46.0392	480.51
46.0536	497.14
46.0681	496.09
46.0825	506.02
46.0970	503.35
46.1114	517.89
46.1258	522.85
46.1403	496.19
46.1547	473.23
46.1692	509.58
46.1836	529.45
46.1980	490.27
46.2125	499.71
46.2269	511.48
46.2414	503.47
46.2558	495.61
46.2702	509.71
46.2847	531.20
46.2991	502.16
46.3136	500.12
46.3280	527.46
46.3424	504.20
46.3569	511.70
46.3713	513.86
46.3858	503.14
46.4002	477.12
46.4146	464.84
46.4291	506.78
46.4435	485.39
46.4580	495.99
46.4724	508.07
46.4868	492.09
46.5013	474.73
46.5157	481.14
46.5302	485.49
46.5446	495.22
46.5590	465.39
46.5735	516.23
46.5879	507.43
46.6024	482.04
46.6168	495.08
46.6312	504.71
46.6457	469.54
46.6601	492.50
46.6746	477.43
46.6890	465.19
46.7034	476.97
46.7179	499.47
46.7323	455.60
46.7468	488.50
46.7612	499.76
46.7756	506.10
46.7901	498.03
46.8045	496.68
46.8190	530.07
46.8334	509.43
46.8478	484.85
46.8623	509.13
46.8767	506.38
46.8912	484.89
46.9056	520.38
46.9200	531.13
46.9345	509.70
46.9489	512.35
46.9634	506.84
46.9778	519.51
46.9922	532.54
47.0067	500.72
47.0211	502.80
47.0356	494.33
47.0500	519.49
47.0644	467.72
47.0789	485.48
47.0933	485.61
47.1078	487.45
47.1222	503.08
47.1366	483.40
47.1511	455.81
47.1655	475.51
47.1800	493.70
47.1944	502.59
47.2088	518.22
47.2233	499.82
47.2377	512.22
47.2522	503.89
47.2666	490.84
47.2810	551.65
47.2955	535.41
47.3099	493.18
47.3244	517.82
47.3388	516.61
47.3532	505.47
47.3677	490.85
47.3821	500.90
47.3966	516.66
47.4110	496.54
47.4254	512.21
47.4399	493.76
47.4543	510.92
47.4688	509.57
47.4832	530.04
47.4976	522.32
47.5121	522.11
47.5265	490.60
47.5410	483.67
47.5554	499.51
47.5698	498.15
47.5843	491.36
47.5987	480.15
47.6132	525.78
47.6276	508.11
47.6420	515.84
47.6565	488.63
47.6709	479.05
47.6854	498.72
47.6998	485.15
47.7142	479.15
47.7287	478.43
47.7431	524.78
47.7576	511.14
47.7720	479.67
47.7864	519.67
47.8009	533.01
47.8153	488.62
47.8298	506.12
47.8442	512.31
47.8586	518.15
47.8731	507.66
47.8875	553.02
47.9020	563.56
47.9164	471.93
47.9308	471.53
47.9453	515.50
47.9597	488.74
47.9742	482.58
47.9886	518.01
48.0030	485.95
48.0175	500.16
48.0319	523.94
48.0464	514.47
48.0608	524.76
48.0752	500.55
48.0897	530.63
48.1041	501.38
48.1186	499.41
48.1330	522.68
48.1474	522.93
48.1619	506.52
48.1763	489.53
48.1908	470.87
48.2052	504.26
48.2196	479.79
48.2341	507.22
48.2485	515.24
48.2630	521.28
48.2774	517.28
48.2918	495.79
48.3063	477.99
48.3207	506.46
48.3352	513.70
48.3496	502.53
48.3640	499.54
48.3785	505.03
48.3929	521.51
48.4074	531.75
48.4218	546.98
48.4362	515.59
48.4507	512.58
48.4651	524.70
48.4796	533.49
48.4940	474.62
48.5084	505.06
48.5229	516.31
48.5373	509.70
48.5518	497.02
48.5662	529.58
48.5806	524.78
48.5951	524.24
48.6095	510.90
48.6240	482.27
48.6384	504.12
48.6528	495.35
48.6673	495.72
48.6817	496.26
48.6962	510.11
48.7106	531.66
48.7250	548.05
48.7395	492.55
48.7539	522.23
48.7684	534.93
48.7828	544.71
48.7972	521.00
48.8117	551.76
48.8261	535.49
48.8406	514.99
48.8550	515.24
48.8694	516.09
48.8839	532.58
48.8983	559.60
48.9128	559.65
48.9272	560.23
48.9416	548.03
48.9561	531.07
48.9705	571.22
48.9850	563.85
48.9994	581.91
49.0139	609.52
49.0283	565.07
49.0427	644.37
49.0572	636.12
49.0716	643.21
49.0861	760.60
49.1005	664.48
49.1149	708.96
49.1294	714.23
49.1438	758.70
49.1583	825.25
49.1727	913.45
49.1871	922.43
49.2016	997.79
49.2160	1028.49
49.2305	1180.84
49.2449	1223.75
49.2593	1317.30
49.2738	1369.26
49.2882	1487.58
49.3027	1589.39
49.3171	1657.86
49.3315	1738.52
49.3460	1844.21
49.3604	1809.18
49.3749	1836.73
49.3893	1819.63
49.4037	1767.97
49.4182	1809.14
49.4326	1769.59
49.4471	1673.83
49.4615	1605.75
49.4759	1576.28
49.4904	1498.75
49.5048	1411.81
49.5193	1305.97
49.5337	1249.12
49.5481	1213.90
49.5626	1179.34
49.5770	1052.73
49.5915	994.56
49.6059	916.49
49.6203	868.83
49.6348	818.97
49.6492	743.84
49.6637	751.25
49.6781	704.13
49.6925	660.53
49.7070	663.73
49.7214	655.27
49.7359	606.26
49.7503	632.09
49.7647	583.23
49.7792	575.20
49.7936	570.57
49.8081	579.37
49.8225	571.12
49.8369	590.09
49.8514	568.89
49.8658	557.01
49.8803	539.85
49.8947	536.17
49.9091	552.61
49.9236	538.03
49.9380	571.09
49.9525	515.57
49.9669	490.91
49.9813	531.76
49.9958	536.63
50.0102	535.29
50.0247	522.90
50.0391	502.94
50.0535	483.20
50.0680	533.32
50.0824	522.50
50.0969	506.78
50.1113	508.75
50.1257	568.64
50.1402	489.43
50.1546	493.64
50.1691	566.02
50.1835	521.84
50.1979	508.41
50.2124	530.03
50.2268	513.29
50.2413	515.30
50.2557	512.22
50.2701	500.32
50.2846	507.55
50.2990	469.97
50.3135	503.05
50.3279	535.60
50.3423	512.92
50.3568	509.44
50.3712	503.75
50.3857	498.65
50.4001	502.42
50.4145	524.59
50.4290	527.58
50.4434	505.39
50.4579	485.05
50.4723	517.31
50.4867	536.39
50.5012	510.08
50.5156	522.54
50.5301	535.46
50.5445	505.17
50.5589	497.14
50.5734	510.30
50.5878	484.70
50.6023	505.71
50.6167	514.22
50.6311	519.92
50.6456	539.79
50.6600	520.85
50.6745	482.98
50.6889	487.11
50.7033	499.40
50.7178	500.76
50.7322	517.94
50.7467	500.48
50.7611	497.67
50.7755	510.01
50.7900	517.54
50.8044	493.95
50.8189	532.07
50.8333	528.25
50.8477	514.29
50.8622	505.68
50.8766	491.10
50.8911	473.63
50.9055	495.44
50.9199	491.91
50.9344	489.96
50.9488	498.17
50.9633	487.72
50.9777	463.19
50.9921	522.22
51.0066	536.75
51.0210	559.64
51.0355	516.70
51.0499	496.36
51.0643	486.21
51.0788	479.02
51.0932	493.11
51.1077	490.09
51.1221	490.75
51.1365	494.49
51.1510	526.67
51.1654	506.55
51.1799	519.57
51.1943	519.33
51.2087	520.25
51.2232	521.23
51.2376	530.12
51.2521	532.08
51.2665	503.61
51.2809	493.65
51.2954	513.92
51.3098	467.84
51.3243	508.82
51.3387	530.10
51.3531	530.29
51.3676	508.72
51.3820	506.11
51.3965	531.71
51.4109	513.98
51.4253	541.44
51.4398	514.20
51.4542	502.29
51.4687	539.13
51.4831	547.35
51.4975	535.04
51.5120	484.16
51.5264	466.13
51.5409	504.85
51.5553	538.10
51.5697	493.15
51.5842	525.51
51.5986	480.51
51.6131	484.36
51.6275	517.96
51.6419	503.04
51.6564	484.23
51.6708	504.93
51.6853	504.10
51.6997	522.54
51.7141	554.44
51.7286	547.56
51.7430	504.39
51.7575	527.37
51.7719	504.06
51.7863	511.64
51.8008	504.23
51.8152	489.89
51.8297	518.33
51.8441	535.69
51.8585	489.40
51.8730	539.67
51.8874	512.21
51.9019	535.83
51.9163	518.94
51.9307	499.47
51.9452	502.87
51.9596	454.45
51.9741	491.95
51.9885	512.69
52.0029	495.23
52.0174	484.28
52.0318	501.13
52.0463	533.05
52.0607	511.00
52.0751	472.19
52.0896	487.34
52.1040	497.99
52.1185	509.00
52.1329	529.47
52.1473	455.87
52.1618	488.36
52.1762	494.85
52.1907	503.81
52.2051	495.01
52.2195	500.79
52.2340	489.00
52.2484	511.02
52.2629	480.73
52.2773	483.79
52.2917	481.20
52.3062	513.24
52.3206	498.00
52.3351	477.00
52.3495	464.84
52.3639	490.92
52.3784	482.77
52.3928	472.01
52.4073	482.36
52.4217	523.51
52.4361	525.99
52.4506	516.39
52.4650	500.40
52.4795	536.17
52.4939	546.63
52.5083	522.12
52.5228	507.48
52.5372	504.14
52.5517	485.01
52.5661	531.84
52.5805	510.09
52.5950	510.03
52.6094	504.19
52.6239	494.43
52.6383	526.69
52.6527	486.86
52.6672	523.38
52.6816	512.26
52.6961	527.66
52.7105	525.69
52.7250	490.90
52.7394	493.33
52.7538	520.62
52.7683	487.81
52.7827	517.99
52.7972	476.47
52.8116	531.36
52.8260	544.57
52.8405	500.52
52.8549	512.83
52.8694	506.55
52.8838	487.94
52.8982	529.08
52.9127	502.08
52.9271	508.70
52.9416	499.46
52.9560	496.16
52.9704	514.83
52.9849	519.48
52.9993	501.73
53.0138	474.41
53.0282	490.25
53.0426	487.83
53.0571	562.86
53.0715	507.67
53.0860	530.48
53.1004	525.21
53.1148	537.35
53.1293	537.89
53.1437	512.54
53.1582	521.32
53.1726	512.33
53.1870	506.14
53.2015	483.40
53.2159	504.95
53.2304	490.17
53.2448	525.50
53.2592	531.18
53.2737	495.70
53.2881	518.28
53.3026	528.00
53.3170	534.48
53.3314	495.49
53.3459	503.88
53.3603	510.99
53.3748	504.94
53.3892	495.03
53.4036	504.91
53.4181	493.01
53.4325	484.83
53.4470	487.59
53.4614	519.08
53.4758	501.46
53.4903	509.69
53.5047	538.60
53.5192	535.15
53.5336	524.89
53.5480	534.30
53.5625	506.91
53.5769	520.64
53.5914	494.36
53.6058	499.72
53.6202	511.02
53.6347	523.78
53.6491	476.30
53.6636	484.31
53.6780	510.32
53.6924	519.77
53.7069	516.94
53.7213	502.36
53.7358	502.06
53.7502	495.33
53.7646	517.10
53.7791	495.64
53.7935	534.61
53.8080	508.79
53.8224	538.66
53.8368	507.76
53.8513	529.63
53.8657	503.26
53.8802	501.01
53.8946	535.28
53.9090	533.54
53.9235	523.43
53.9379	530.83
53.9524	530.90
53.9668	512.31
53.9812	549.40
53.9957	520.15
54.0101	495.67
54.0246	548.12
54.0390	524.53
54.0534	530.36
54.0679	504.04
54.0823	542.90
54.0968	548.76
54.1112	505.74
54.1256	534.95
54.1401	521.30
54.1545	495.10
54.1690	583.19
54.1834	566.58
54.1978	567.49
54.2123	593.23
54.2267	593.67
54.2412	584.54
54.2556	582.14
54.2700	633.93
54.2845	675.42
54.2989	632.88
54.3134	636.29
54.3278	621.81
54.3422	595.10
54.3567	594.86
54.3711	573.46
54.3856	560.09
54.4000	569.90
54.4144	586.36
54.4289	616.58
54.4433	579.30
54.4578	558.57
54.4722	582.48
54.4866	548.75
54.5011	535.77
54.5155	529.26
54.5300	545.37
54.5444	545.74
54.5588	497.31
54.5733	504.86
54.5877	512.15
54.6022	504.18
54.6166	514.56
54.6310	511.73
54.6455	503.92
54.6599	499.12
54.6744	498.02
54.6888	497.54
54.7032	520.47
54.7177	527.06
54.7321	518.92
54.7466	528.89
54.7610	514.28
54.7754	520.35
54.7899	508.27
54.8043	488.39
54.8188	495.94
54.8332	508.62
54.8476	529.68
54.8621	536.72
54.8765	516.49
54.8910	480.21
54.9054	520.61
54.9198	520.21
54.9343	516.39
54.9487	516.72
54.9632	514.17
54.9776	509.44
54.9920	517.80
55.0065	536.10
55.0209	543.98
55.0354	521.38
55.0498	494.36
55.0642	490.00
55.0787	475.61
55.0931	511.79
55.1076	531.70
55.1220	505.43
55.1364	489.05
55.1509	471.21
55.1653	515.57
55.1798	518.61
55.1942	487.63
55.2086	485.26
55.2231	504.12
55.2375	510.25
55.2520	543.84
55.2664	523.73
55.2808	530.99
55.2953	511.43
55.3097	502.32
55.3242	490.54
55.3386	553.04
55.3530	519.33
55.3675	509.20
55.3819	515.15
55.3964	510.16
55.4108	508.70
55.4252	530.80
55.4397	526.77
55.4541	515.83
55.4686	528.42
55.4830	489.53
55.4974	474.10
55.5119	493.77
55.5263	525.71
55.5408	535.22
55.5552	508.47
55.5696	537.28
55.5841	493.12
55.5985	472.98
55.6130	526.08
55.6274	506.84
55.6418	517.52
55.6563	527.96
55.6707	538.29
55.6852	521.09
55.6996	496.29
55.7140	489.62
55.7285	502.23
55.7429	510.14
55.7574	530.11
55.7718	533.89
55.7862	575.61
55.8007	526.84
55.8151	532.49
55.8296	517.64
55.8440	493.33
55.8584	530.25
55.8729	535.66
55.8873	510.33
55.9018	512.66
55.9162	547.73
55.9306	506.49
55.9451	494.62
55.9595	505.98
55.9740	533.57
55.9884	512.47
56.0028	536.10
56.0173	525.08
56.0317	542.68
56.0462	548.48
56.0606	540.99
56.0750	526.60
56.0895	545.24
56.1039	522.63
56.1184	506.96
56.1328	489.07
56.1472	482.86
56.1617	530.08
56.1761	518.16
56.1906	520.25
56.2050	506.69
56.2194	508.81
56.2339	537.23
56.2483	523.54
56.2628	503.93
56.2772	524.34
56.2916	560.42
56.3061	508.03
56.3205	516.30
56.3350	534.09
56.3494	501.95
56.3639	508.98
56.3783	516.76
56.3927	513.28
56.4072	499.55
56.4216	537.61
56.4361	525.80
56.4505	524.61
56.4649	543.18
56.4794	538.94
56.4938	526.96
56.5083	533.85
56.5227	506.50
56.5371	539.90
56.5516	521.05
56.5660	534.09
56.5805	535.79
56.5949	544.52
56.6093	490.21
56.6238	498.02
56.6382	491.63
56.6527	494.57
56.6671	495.02
56.6815	508.89
56.6960	516.10
56.7104	510.66
56.7249	492.58
56.7393	511.24
56.7537	519.81
56.7682	513.36
56.7826	560.54
56.7971	496.27
56.8115	515.92
56.8259	536.07
56.8404	550.05
56.8548	528.22
56.8693	510.21
56.8837	520.44
56.8981	524.38
56.9126	536.83
56.9270	502.80
56.9415	554.67
56.9559	501.73
56.9703	503.69
56.9848	514.51
56.9992	517.61
57.0137	516.09
57.0281	497.82
57.0425	489.35
57.0570	516.48
57.0714	490.72
57.0859	529.93
57.1003	517.23
57.1147	558.78
57.1292	570.78
57.1436	540.66
57.1581	517.10
57.1725	516.14
57.1869	507.97
57.2014	541.83
57.2158	525.43
57.2303	485.99
57.2447	515.04
57.2591	524.29
57.2736	503.39
57.2880	509.85
57.3025	529.75
57.3169	535.15
57.3313	540.90
57.3458	523.32
57.3602	529.59
57.3747	510.92
57.3891	534.43
57.4035	494.88
57.4180	512.32
57.4324	554.28
57.4469	502.31
57.4613	534.81
57.4757	531.09
57.4902	544.04
57.5046	535.35
57.5191	535.17
57.5335	519.26
57.5479	515.73
57.5624	507.17
57.5768	546.64
57.5913	537.13
57.6057	513.23
57.6201	496.08
57.6346	549.65
57.6490	519.29
57.6635	529.36
57.6779	522.91
57.6923	542.89
57.7068	570.33
57.7212	568.26
57.7357	548.77
57.7501	552.25
57.7645	561.30
57.7790	605.86
57.7934	599.01
57.8079	636.20
57.8223	668.79
57.8367	699.96
57.8512	763.96
57.8656	772.30
57.8801	774.98
57.8945	781.19
57.9089	745.28
57.9234	738.17
57.9378	708.54
57.9523	685.56
57.9667	651.78
57.9811	612.14
57.9956	653.02
58.0100	667.38
58.0245	679.81
58.0389	704.07
58.0533	646.79
58.0678	633.34
58.0822	607.93
58.0967	571.61
58.1111	565.83
58.1255	588.78
58.1400	563.05
58.1544	583.95
58.1689	588.97
58.1833	540.29
58.1977	533.52
58.2122	581.13
58.2266	598.90
58.2411	573.26
58.2555	531.90
58.2699	529.33
58.2844	528.68
58.2988	573.10
58.3133	541.18
58.3277	508.56
58.3421	499.13
58.3566	516.71
58.3710	531.06
58.3855	516.77
58.3999	524.59
58.4143	530.65
58.4288	559.60
58.4432	528.33
58.4577	474.70
58.4721	518.28
58.4865	522.99
58.5010	526.69
58.5154	525.46
58.5299	528.00
58.5443	524.77
58.5587	547.09
58.5732	501.89
58.5876	547.88
58.6021	557.79
58.6165	533.21
58.6309	538.26
58.6454	560.26
58.6598	524.55
58.6743	546.59
58.6887	547.59
58.7031	528.42
58.7176	532.78
58.7320	497.16
58.7465	536.18
58.7609	512.02
58.7753	502.70
58.7898	513.94
58.8042	538.93
58.8187	550.02
58.8331	530.14
58.8475	511.93
58.8620	518.43
58.8764	531.43
58.8909	532.08
58.9053	553.08
58.9197	529.39
58.9342	524.36
58.9486	537.79
58.9631	527.22
58.9775	501.22
58.9919	502.10
59.0064	521.75
59.0208	526.64
59.0353	505.63
59.0497	548.31
59.0641	556.17
59.0786	500.27
59.0930	555.11
59.1075	568.53
59.1219	531.36
59.1363	536.31
59.1508	517.98
59.1652	549.38
59.1797	548.13
59.1941	533.71
59.2085	519.33
59.2230	537.19
59.2374	541.20
59.2519	514.86
59.2663	529.37
59.2807	549.02
59.2952	563.99
59.3096	512.72
59.3241	543.11
59.3385	546.06
59.3529	540.18
59.3674	546.88
59.3818	524.82
59.3963	551.08
59.4107	552.56
59.4251	578.76
59.4396	542.67
59.4540	570.15
59.4685	564.37
59.4829	544.82
59.4973	544.74
59.5118	555.70
59.5262	580.33
59.5407	553.00
59.5551	562.43
59.5695	561.24
59.5840	540.57
59.5984	546.69
59.6129	556.78
59.6273	532.85
59.6417	533.96
59.6562	555.50
59.6706	540.14
59.6851	526.26
59.6995	521.78
59.7139	565.56
59.7284	515.51
59.7428	534.38
59.7573	579.75
59.7717	534.90
59.7861	495.28
59.8006	498.67
59.8150	568.31
59.8295	520.94
59.8439	558.76
59.8583	559.89
59.8728	542.45
59.8872	535.54
59.9017	537.41
59.9161	515.90
59.9305	545.74
59.9450	532.31
59.9594	501.80
59.9739	505.46
59.9883	523.30
60.0027	513.79
60.0172	568.16
60.0316	541.01
60.0461	534.46
60.0605	532.13
60.0750	536.70
60.0894	546.03
60.1038	527.18
60.1183	555.60
60.1327	542.22
60.1472	506.09
60.1616	517.52
60.1760	524.18
60.1905	521.34
60.2049	526.94
60.2194	531.39
60.2338	540.75
60.2482	542.78
60.2627	556.72
60.2771	540.87
60.2916	505.96
60.3060	531.80
60.3204	551.64
60.3349	521.01
60.3493	501.70
60.3638	535.70
60.3782	560.87
60.3926	524.56
60.4071	490.10
60.4215	509.25
60.4360	556.49
60.4504	519.73
60.4648	542.02
60.4793	540.98
60.4937	568.70
60.5082	588.76
60.5226	567.22
60.5370	556.89
60.5515	552.34
60.5659	532.27
60.5804	526.11
60.5948	552.17
60.6092	508.60
60.6237	520.68
60.6381	552.38
60.6526	541.12
60.6670	525.79
60.6814	488.94
60.6959	504.70
60.7103	521.42
60.7248	505.08
60.7392	506.23
60.7536	530.74
60.7681	487.23
60.7825	483.19
60.7970	526.45
60.8114	542.95
60.8258	538.36
60.8403	531.84
60.8547	521.38
60.8692	563.27
60.8836	513.32
60.8980	584.34
60.9125	531.52
60.9269	538.30
60.9414	501.49
60.9558	542.99
60.9702	487.76
60.9847	497.11
60.9991	535.44
61.0136	511.94
61.0280	573.78
61.0424	527.20
61.0569	517.09
61.0713	546.34
61.0858	562.13
61.1002	617.10
61.1146	557.03
61.1291	529.17
61.1435	501.77
61.1580	540.45
61.1724	545.20
61.1868	532.34
61.2013	592.74
61.2157	578.72
61.2302	574.03
61.2446	545.05
61.2590	552.97
61.2735	521.34
61.2879	505.98
61.3024	526.62
61.3168	571.38
61.3312	559.13
61.3457	546.47
61.3601	536.82
61.3746	533.30
61.3890	530.01
61.4034	553.59
61.4179	539.17
61.4323	561.76
61.4468	519.80
61.4612	531.59
61.4756	564.87
61.4901	536.08
61.5045	527.29
61.5190	526.79
61.5334	549.99
61.5478	551.32
61.5623	540.92
61.5767	524.47
61.5912	526.63
61.6056	514.45
61.6200	541.29
61.6345	542.26
61.6489	572.45
61.6634	544.94
61.6778	524.94
61.6922	539.26
61.7067	578.87
61.7211	539.60
61.7356	527.01
61.7500	543.18
61.7644	536.68
61.7789	555.73
61.7933	553.40
61.8078	532.73
61.8222	504.79
61.8366	576.90
61.8511	548.54
61.8655	529.35
61.8800	549.04
61.8944	562.56
61.9088	530.76
61.9233	528.72
61.9377	547.57
61.9522	527.70
61.9666	532.32
61.9810	523.10
61.9955	523.60
62.0099	539.02
62.0244	555.86
62.0388	556.73
62.0532	568.22
62.0677	582.75
62.0821	545.18
62.0966	552.07
62.1110	539.41
62.1254	583.67
62.1399	564.07
62.1543	562.81
62.1688	575.89
62.1832	562.03
62.1976	516.63
62.2121	513.13
62.2265	529.49
62.2410	533.06
62.2554	536.90
62.2698	534.47
62.2843	521.60
62.2987	527.65
62.3132	565.78
62.3276	557.99
62.3420	583.84
62.3565	533.48
62.3709	554.37
62.3854	558.54
62.3998	555.62
62.4142	548.04
62.4287	583.03
62.4431	538.37
62.4576	530.54
62.4720	553.73
62.4864	558.98
62.5009	576.97
62.5153	540.32
62.5298	520.09
62.5442	542.40
62.5586	532.28
62.5731	515.67
62.5875	533.17
62.6020	527.99
62.6164	537.81
62.6308	543.29
62.6453	563.99
62.6597	559.76
62.6742	563.02
62.6886	506.86
62.7030	558.23
62.7175	567.77
62.7319	537.01
62.7464	571.77
62.7608	537.87
62.7752	568.47
62.7897	601.40
62.8041	580.56
62.8186	542.83
62.8330	553.61
62.8474	538.34
62.8619	562.79
62.8763	534.17
62.8908	505.28
62.9052	550.79
62.9196	570.64
62.9341	576.90
62.9485	585.43
62.9630	550.98
62.9774	548.98
62.9918	558.80
63.0063	541.54
63.0207	552.35
63.0352	573.58
63.0496	556.01
63.0640	560.20
63.0785	559.50
63.0929	582.40
63.1074	582.33
63.1218	600.80
63.1362	551.32
63.1507	529.60
63.1651	535.65
63.1796	583.23
63.1940	596.40
63.2084	560.32
63.2229	570.51
63.2373	569.28
63.2518	603.83
63.2662	585.65
63.2806	592.42
63.2951	582.51
63.3095	573.78
63.3240	588.40
63.3384	577.23
63.3528	557.83
63.3673	597.76
63.3817	594.53
63.3962	589.93
63.4106	606.73
63.4250	663.77
63.4395	635.88
63.4539	664.13
63.4684	711.36
63.4828	730.47
63.4972	786.45
63.5117	783.12
63.5261	831.49
63.5406	877.30
63.5550	949.97
63.5694	948.50
63.5839	954.63
63.5983	961.92
63.6128	880.78
63.6272	808.07
63.6416	820.42
63.6561	796.43
63.6705	810.70
63.6850	767.81
63.6994	799.43
63.7138	813.61
63.7283	795.21
63.7427	789.51
63.7572	770.87
63.7716	762.56
63.7861	750.72
63.8005	683.35
63.8149	674.91
63.8294	658.50
63.8438	616.79
63.8583	640.43
63.8727	654.88
63.8871	594.99
63.9016	631.69
63.9160	615.42
63.9305	640.50
63.9449	607.14
63.9593	590.74
63.9738	637.60
63.9882	633.65
64.0027	629.23
64.0171	612.43
64.0315	625.88
64.0460	644.06
64.0604	615.40
64.0749	597.44
64.0893	565.64
64.1037	613.18
64.1182	630.42
64.1326	592.47
64.1471	568.99
64.1615	552.14
64.1759	598.85
64.1904	581.66
64.2048	577.34
64.2193	572.91
64.2337	581.98
64.2481	600.74
64.2626	571.77
64.2770	572.40
64.2915	593.71
64.3059	593.83
64.3203	596.18
64.3348	604.24
64.3492	605.74
64.3637	621.26
64.3781	596.14
64.3925	617.29
64.4070	573.69
64.4214	627.10
64.4359	589.39
64.4503	596.55
64.4647	629.14
64.4792	578.07
64.4936	609.95
64.5081	618.93
64.5225	607.91
64.5369	613.94
64.5514	604.62
64.5658	608.87
64.5803	567.14
64.5947	603.31
64.6091	651.27
64.6236	590.91
64.6380	651.09
64.6525	669.99
64.6669	623.80
64.6813	623.86
64.6958	622.51
64.7102	668.66
64.7247	694.92
64.7391	655.95
64.7535	693.14
64.7680	682.29
64.7824	717.39
64.7969	765.20
64.8113	746.69
64.8257	757.26
64.8402	779.18
64.8546	834.94
64.8691	836.95
64.8835	804.90
64.8979	791.81
64.9124	883.91
64.9268	872.57
64.9413	918.89
64.9557	926.24
64.9701	916.66
64.9846	1019.26
64.9990	1056.52
65.0135	1152.18
65.0279	1400.34
65.0423	1683.10
65.0568	2046.44
65.0712	2494.63
65.0857	3229.26
65.1001	4236.31
65.1145	5874.23
65.1290	7770.29
65.1434	9143.83
65.1579	10675.45
65.1723	11604.14
65.1867	11003.94
65.2012	9809.39
65.2156	8230.27
65.2301	6641.80
65.2445	5289.09
65.2589	4471.24
65.2734	4085.32
65.2878	4223.81
65.3023	4725.86
65.3167	5431.86
65.3311	6299.36
65.3456	6702.26
65.3600	6878.99
65.3745	6389.14
65.3889	5394.90
65.4033	4408.35
65.4178	3423.70
65.4322	2785.54
65.4467	2118.86
65.4611	1729.48
65.4755	1440.81
65.4900	1250.67
65.5044	1137.49
65.5189	1004.82
65.5333	949.63
65.5477	928.96
65.5622	920.65
65.5766	861.31
65.5911	804.64
65.6055	766.82
65.6199	722.27
65.6344	758.50
65.6488	740.87
65.6633	743.52
65.6777	705.60
65.6921	701.54
65.7066	702.61
65.7210	705.29
65.7355	677.03
65.7499	668.65
65.7643	642.53
65.7788	667.65
65.7932	676.56
65.8077	658.35
65.8221	653.53
65.8365	681.72
65.8510	658.13
65.8654	659.88
65.8799	648.95
65.8943	646.02
65.9087	598.08
65.9232	582.06
65.9376	633.86
65.9521	665.24
65.9665	585.50
65.9809	606.96
65.9954	610.82
66.0098	649.05
66.0243	571.62
66.0387	590.85
66.0531	648.11
66.0676	695.78
66.0820	645.05
66.0965	620.84
66.1109	615.99
66.1253	610.53
66.1398	586.51
66.1542	559.17
66.1687	595.89
66.1831	618.94
66.1975	591.93
66.2120	617.99
66.2264	632.09
66.2409	618.31
66.2553	614.13
66.2697	573.10
66.2842	592.42
66.2986	601.27
66.3131	629.91
66.3275	604.07
66.3419	630.24
66.3564	591.02
66.3708	598.78
66.3853	562.90
66.3997	579.07
66.4141	592.14
66.4286	617.03
66.4430	591.18
66.4575	589.86
66.4719	614.27
66.4863	606.40
66.5008	576.80
66.5152	593.58
66.5297	592.62
66.5441	600.99
66.5585	572.31
66.5730	584.30
66.5874	587.86
66.6019	588.85
66.6163	574.24
66.6307	588.07
66.6452	579.86
66.6596	555.19
66.6741	598.48
66.6885	604.29
66.7029	600.35
66.7174	594.84
66.7318	594.45
66.7463	581.97
66.7607	562.94
66.7751	561.91
66.7896	600.63
66.8040	611.51
66.8185	587.12
66.8329	594.60
66.8473	602.73
66.8618	565.40
66.8762	572.41
66.8907	590.21
66.9051	579.30
66.9195	555.74
66.9340	563.50
66.9484	555.18
66.9629	561.62
66.9773	591.83
66.9917	610.88
67.0062	604.42
67.0206	604.47
67.0351	596.78
67.0495	557.69
67.0639	575.46
67.0784	539.50
67.0928	566.79
67.1073	582.85
67.1217	600.27
67.1361	595.23
67.1506	551.90
67.1650	579.95
67.1795	564.06
67.1939	585.75
67.2083	601.00
67.2228	569.06
67.2372	566.98
67.2517	572.02
67.2661	552.46
67.2805	598.74
67.2950	588.40
67.3094	562.67
67.3239	572.24
67.3383	590.01
67.3527	569.33
67.3672	597.13
67.3816	586.64
67.3961	572.22
67.4105	592.94
67.4250	588.90
67.4394	582.45
67.4538	537.14
67.4683	566.72
67.4827	637.14
67.4972	580.39
67.5116	568.98
67.5260	567.01
67.5405	598.17
67.5549	583.87
67.5694	565.65
67.5838	560.88
67.5982	559.51
67.6127	586.48
67.6271	571.80
67.6416	589.09
67.6560	567.07
67.6704	566.73
67.6849	555.63
67.6993	563.36
67.7138	577.01
67.7282	576.43
67.7426	544.04
67.7571	550.42
67.7715	547.01
67.7860	597.55
67.8004	565.89
67.8148	561.26
67.8293	548.18
67.8437	542.84
67.8582	546.75
67.8726	548.21
67.8870	562.39
67.9015	614.22
67.9159	567.73
67.9304	571.47
67.9448	572.19
67.9592	567.36
67.9737	578.67
67.9881	557.33
68.0026	597.19
68.0170	554.95
68.0314	554.53
68.0459	541.34
68.0603	569.56
68.0748	599.06
68.0892	599.09
68.1036	570.04
68.1181	584.20
68.1325	589.73
68.1470	567.51
68.1614	556.00
68.1758	573.48
68.1903	567.21
68.2047	547.65
68.2192	570.21
68.2336	570.10
68.2480	543.32
68.2625	529.96
68.2769	570.51
68.2914	565.62
68.3058	546.79
68.3202	576.92
68.3347	585.96
68.3491	569.18
68.3636	601.03
68.3780	574.57
68.3924	556.39
68.4069	539.30
68.4213	577.29
68.4358	562.24
68.4502	579.16
68.4646	561.46
68.4791	580.59
68.4935	550.26
68.5080	580.10
68.5224	572.41
68.5368	591.74
68.5513	570.93
68.5657	603.75
68.5802	587.81
68.5946	541.37
68.6090	540.59
68.6235	519.95
68.6379	560.42
68.6524	542.68
68.6668	582.58
68.6812	582.72
68.6957	581.85
68.7101	573.54
68.7246	574.91
68.7390	562.18
68.7534	558.09
68.7679	573.60
68.7823	579.03
68.7968	580.59
68.8112	567.81
68.8256	582.87
68.8401	554.14
68.8545	554.48
68.8690	598.12
68.8834	558.05
68.8978	522.60
68.9123	597.44
68.9267	577.96
68.9412	562.69
68.9556	557.27
68.9700	555.79
68.9845	518.42
68.9989	561.62
69.0134	529.83
69.0278	563.07
69.0422	593.84
69.0567	574.06
69.0711	606.80
69.0856	593.47
69.1000	583.52
69.1144	569.08
69.1289	613.87
69.1433	572.70
69.1578	540.35
69.1722	524.65
69.1866	575.03
69.2011	636.29
69.2155	612.31
69.2300	551.24
69.2444	551.83
69.2588	579.66
69.2733	547.23
69.2877	595.86
69.3022	591.59
69.3166	551.20
69.3310	577.20
69.3455	503.24
69.3599	567.90
69.3744	553.96
69.3888	542.06
69.4032	503.57
69.4177	543.75
69.4321	575.87
69.4466	594.07
69.4610	601.46
69.4754	564.34
69.4899	557.60
69.5043	569.35
69.5188	563.71
69.5332	584.34
69.5476	570.79
69.5621	588.40
69.5765	554.77
69.5910	510.17
69.6054	546.49
69.6198	551.91
69.6343	634.77
69.6487	544.56
69.6632	535.25
69.6776	579.25
69.6920	558.60
69.7065	633.58
69.7209	613.54
69.7354	548.29
69.7498	613.22
69.7642	537.43
69.7787	615.41
69.7931	578.27
69.8076	565.80
69.8220	548.64
69.8364	582.79
69.8509	522.92
69.8653	537.30
69.8798	547.27
69.8942	564.25
69.9086	601.10
69.9231	536.94
69.9375	576.29
69.9520	593.42
69.9664	585.40
69.9808	515.96
69.9953	585.44
70.0097	593.25
70.0242	549.84
70.0386	529.22
70.0530	592.76
70.0675	611.22
70.0819	582.28
70.0964	566.42
70.1108	608.09
70.1252	594.29
70.1397	505.62
70.1541	520.71
70.1686	549.23
70.1830	608.51
70.1974	588.66
70.2119	625.75
70.2263	568.69
70.2408	581.85
70.2552	537.46
70.2696	550.13
70.2841	532.57
70.2985	548.05
70.3130	578.11
70.3274	613.18
70.3418	599.03
70.3563	622.21
70.3707	597.07
70.3852	597.41
70.3996	566.11
70.4140	554.65
70.4285	574.79
70.4429	556.35
70.4574	544.83
70.4718	571.41
70.4862	535.51
70.5007	546.16
70.5151	590.29
70.5296	614.41
70.5440	585.65
70.5584	570.54
70.5729	548.72
70.5873	539.65
70.6018	551.28
70.6162	547.48
70.6306	541.31
70.6451	508.07
70.6595	598.43
70.6740	594.13
70.6884	557.61
70.7028	580.26
70.7173	578.96
70.7317	558.72
70.7462	594.88
70.7606	589.78
70.7750	580.77
70.7895	559.50
70.8039	538.16
70.8184	577.20
70.8328	614.94
70.8472	598.04
70.8617	579.67
70.8761	599.15
70.8906	563.82
70.9050	599.00
70.9194	553.78
70.9339	555.70
70.9483	583.75
70.9628	604.45
70.9772	555.94
70.9916	548.05
71.0061	541.80
71.0205	576.49
71.0350	600.63
71.0494	571.56
71.0638	548.21
71.0783	538.21
71.0927	537.89
71.1072	566.94
71.1216	601.03
71.1361	580.37
71.1505	559.81
71.1649	575.78
71.1794	570.80
71.1938	579.49
71.2083	610.71
71.2227	557.59
71.2371	568.48
71.2516	582.31
71.2660	598.49
71.2805	605.79
71.2949	580.35
71.3093	527.16
71.3238	531.26
71.3382	599.27
71.3527	593.32
71.3671	585.44
71.3815	600.79
71.3960	575.52
71.4104	533.20
71.4249	573.55
71.4393	605.70
71.4537	522.91
71.4682	576.57
71.4826	583.65
71.4971	583.74
71.5115	548.50
71.5259	516.68
71.5404	545.08
71.5548	572.92
71.5693	544.74
71.5837	516.18
71.5981	555.51
71.6126	550.46
71.6270	601.83
71.6415	626.13
71.6559	564.18
71.6703	630.89
71.6848	621.49
71.6992	559.65
71.7137	593.72
71.7281	548.07
71.7425	564.01
71.7570	601.65
71.7714	577.61
71.7859	602.60
71.8003	589.70
71.8147	520.50
71.8292	533.53
71.8436	554.27
71.8581	576.42
71.8725	605.64
71.8869	558.27
71.9014	604.32
71.9158	634.07
71.9303	516.39
71.9447	529.61
71.9591	563.32
71.9736	532.45
71.9880	554.56
72.0025	543.04
72.0169	572.57
72.0313	635.90
72.0458	576.22
72.0602	537.02
72.0747	540.21
72.0891	523.61
72.1035	584.16
72.1180	658.50
72.1324	665.56
72.1469	560.52
72.1613	615.91
72.1757	639.83
72.1902	604.16
72.2046	571.80
72.2191	572.20
72.2335	526.19
72.2479	546.34
72.2624	548.72
72.2768	537.79
72.2913	586.58
72.3057	643.97
72.3201	610.32
72.3346	632.25
72.3490	646.12
72.3635	642.83
72.3779	568.01
72.3923	581.43
72.4068	570.57
72.4212	527.27
72.4357	557.84
72.4501	567.24
72.4645	571.45
72.4790	578.96
72.4934	579.12
72.5079	572.33
72.5223	591.72
72.5367	561.65
72.5512	580.65
72.5656	549.56
72.5801	550.12
72.5945	592.53
72.6089	572.22
72.6234	564.30
72.6378	599.91
72.6523	533.41
72.6667	548.11
72.6811	567.57
72.6956	524.76
72.7100	563.77
72.7245	597.20
72.7389	579.04
72.7533	545.63
72.7678	577.24
72.7822	594.00
72.7967	633.67
72.8111	608.12
72.8255	545.70
72.8400	506.30
72.8544	518.64
72.8689	525.92
72.8833	567.49

Result vector
22.1120	598.61
22.1264	553.61
22.1409	518.17
22.1553	435.81
22.1697	525.59
22.1842	565.12
22.1986	560.15
22.2131	530.24
22.2275	534.46
22.2419	605.41
22.2564	660.57
22.2708	629.92
22.2853	573.80
22.2997	458.31
22.3141	589.95
22.3286	522.66
22.3430	612.27
22.3575	622.30
22.3719	629.82
22.3863	537.96
22.4008	600.38
22.4152	578.16
22.4297	608.08
22.4441	641.04
22.4585	599.99
22.4730	676.70
22.4874	634.19
22.5019	565.92
22.5163	574.18
22.5307	625.93
22.5452	519.45
22.5596	542.11
22.5741	553.93
22.5885	588.74
22.6029	599.59
22.6174	533.92
22.6318	565.10
22.6463	542.22
22.6607	486.88
22.6751	565.85
22.6896	613.61
22.7040	575.90
22.7185	529.09
22.7329	529.09
22.7473	529.09
22.7618	536.49
22.7762	575.56
22.7907	598.86
22.8051	541.09
22.8195	587.62
22.8340	530.64
22.8484	547.72
22.8629	542.10
22.8773	552.01
22.8917	556.54
22.9062	626.84
22.9206	506.03
22.9351	560.70
22.9495	575.03
22.9639	598.02
22.9784	595.57
22.9928	532.02
23.0073	516.32
23.0217	512.73
23.0361	555.44
23.0506	517.37
23.0650	518.29
23.0795	472.69
23.0939	515.08
23.1083	597.66
23.1228	538.92
23.1372	537.48
23.1517	549.75
23.1661	537.54
23.1806	521.47
23.1950	536.79
23.2094	544.62
23.2239	521.82
23.2383	502.15
23.2528	592.40
23.2672	534.89
23.2816	569.24
23.2961	604.85
23.3105	542.98
23.3250	616.07
23.3394	593.77
23.3538	574.53
23.3683	593.72
23.3827	508.87
23.3972	509.22
23.4116	563.91
23.4260	619.67
23.4405	558.98
23.4549	520.18
23.4694	584.87
23.4838	505.95
23.4982	530.69
23.5127	515.89
23.5271	500.46
23.5416	521.15
23.5560	566.90
23.5704	524.79
23.5849	537.09
23.5993	532.86
23.6138	573.70
23.6282	502.94
23.6426	568.12
23.6571	593.53
23.6715	534.30
23.6860	468.04
23.7004	535.28
23.7148	587.46
23.7293	614.51
23.7437	532.85
23.7582	505.87
23.7726	546.57
23.7870	595.42
23.8015	534.39
23.8159	535.16
23.8304	503.89
23.8448	556.11
23.8592	588.83
23.8737	621.16
23.8881	560.87
23.9026	553.24
23.9170	581.06
23.9314	553.98
23.9459	569.83
23.9603	513.38
23.9748	598.70
23.9892	524.07
24.0036	475.42
24.0181	547.11
24.0325	548.59
24.0470	604.18
24.0614	571.88
24.0758	549.28
24.0903	576.68
24.1047	586.34
24.1192	572.78
24.1336	539.42
24.1480	511.09
24.1625	575.84
24.1769	557.93
24.1914	581.79
24.2058	576.51
24.2202	594.23
24.2347	630.16
24.2491	595.64
24.2636	575.87
24.2780	576.04
24.2924	584.20
24.3069	557.92
24.3213	568.50
24.3358	574.57
24.3502	564.55
24.3646	526.89
24.3791	535.87
24.3935	523.01
24.4080	588.41
24.4224	528.00
24.4368	590.45
24.4513	561.87
24.4657	551.16
24.4802	522.36
24.4946	583.11
24.5090	535.55
24.5235	488.56
24.5379	474.21
24.5524	524.04
24.5668	530.00
24.5812	541.89
24.5957	584.30
24.6101	605.79
24.6246	549.63
24.6390	559.63
24.6534	553.46
24.6679	523.75
24.6823	559.84
24.6968	584.22
24.7112	608.57
24.7256	574.27
24.7401	540.10
24.7545	591.73
24.7690	517.63
24.7834	536.67
24.7978	538.41
24.8123	579.47
24.8267	613.98
24.8412	543.93
24.8556	573.67
24.8700	616.87
24.8845	539.82
24.8989	497.21
24.9134	525.87
24.9278	513.98
24.9422	526.75
24.9567	544.48
24.9711	552.28
24.9856	553.64
25.0000	534.26
25.0144	549.06
25.0289	528.72
25.0433	509.15
25.0578	520.21
25.0722	525.46
25.0866	575.75
25.1011	524.12
25.1155	554.65
25.1300	561.00
25.1444	517.84
25.1588	531.86
25.1733	523.65
25.1877	502.66
25.2022	545.42
25.2166	547.05
25.2310	527.61
25.2455	533.40
25.2599	500.29
25.2744	511.05
25.2888	538.72
25.3032	535.37
25.3177	533.12
25.3321	530.80
25.3466	571.54
25.3610	544.70
25.3754	537.26
25.3899	506.29
25.4043	501.91
25.4188	503.93
25.4332	571.00
25.4476	483.26
25.4621	519.06
25.4765	523.34
25.4910	550.46
25.5054	557.31
25.5198	573.12
25.5343	558.06
25.5487	571.61
25.5632	552.56
25.5776	539.90
25.5920	513.39
25.6065	579.51
25.6209	569.61
25.6354	539.81
25.6498	516.93
25.6642	574.45
25.6787	521.43
25.6931	536.60
25.7076	536.89
25.7220	538.53
25.7364	557.07
25.7509	535.83
25.7653	541.98
25.7798	536.45
25.7942	544.20
25.8086	542.64
25.8231	551.53
25.8375	579.95
25.8520	578.32
25.8664	589.78
25.8808	522.32
25.8953	513.74
25.9097	537.16
25.9242	524.55
25.9386	557.41
25.9530	521.17
25.9675	508.06
25.9819	580.46
25.9964	599.65
26.0108	536.64
26.0252	509.05
26.0397	513.42
26.0541	537.00
26.0686	518.95
26.0830	554.07
26.0974	500.37
26.1119	528.14
26.1263	549.57
26.1408	535.59
26.1552	536.81
26.1696	539.53
26.1841	525.48
26.1985	501.58
26.2130	536.54
26.2274	514.39
26.2418	517.53
26.2563	540.13
26.2707	544.93
26.2852	559.70
26.2996	555.42
26.3140	527.66
26.3285	510.84
26.3429	544.84
26.3574	521.44
26.3718	519.04
26.3862	514.11
26.4007	545.77
26.4151	524.16
26.4296	522.94
26.4440	501.24
26.4584	507.26
26.4729	543.29
26.4873	536.91
26.5018	540.10
26.5162	547.11
26.5306	545.84
26.5451	534.32
26.5595	519.92
26.5740	504.12
26.5884	514.70
26.6028	555.32
26.6173	518.61
26.6317	532.15
26.6462	533.14
26.6606	538.52
26.6750	505.08
26.6895	537.95
26.7039	551.59
26.7184	546.42
26.7328	526.99
26.7472	531.10
26.7617	532.37
26.7761	519.31
26.7906	524.15
26.8050	539.69
26.8194	523.42
26.8339	489.13
26.8483	481.42
26.8628	516.71
26.8772	522.75
26.8917	525.02
26.9061	559.48
26.9205	516.25
26.9350	528.30
26.9494	525.09
26.9639	507.56
26.9783	503.43
26.9927	518.46
27.0072	509.68
27.0216	509.95
27.0361	520.82
27.0505	530.51
27.0649	521.82
27.0794	531.21
27.0938	513.39
27.1083	487.59
27.1227	495.70
27.1371	512.72
27.1516	514.46
27.1660	550.68
27.1805	577.19
27.1949	505.29
27.2093	523.09
27.2238	512.75
27.2382	524.97
27.2527	516.64
27.2671	502.50
27.2815	548.20
27.2960	495.98
27.3104	514.18
27.3249	537.63
27.3393	527.15
27.3537	534.05
27.3682	515.81
27.3826	546.27
27.3971	524.14
27.4115	509.19
27.4259	540.83
27.4404	512.61
27.4548	525.16
27.4693	506.09
27.4837	482.28
27.4981	507.64
27.5126	526.52
27.5270	519.99
27.5415	525.92
27.5559	492.52
27.5703	501.31
27.5848	517.40
27.5992	495.29
27.6137	511.79
27.6281	511.47
27.6425	514.92
27.6570	534.10
27.6714	509.90
27.6859	503.34
27.7003	519.90
27.7147	504.53
27.7292	496.54
27.7436	501.33
27.7581	510.64
27.7725	501.90
27.7869	492.17
27.8014	516.87
27.8158	512.36
27.8303	535.12
27.8447	524.01
27.8591	521.23
27.8736	496.28
27.8880	514.02
27.9025	536.40
27.9169	532.04
27.9313	526.52
27.9458	525.06
27.9602	512.78
27.9747	508.98
27.9891	515.24
28.0035	497.46
28.0180	498.51
28.0324	520.90
28.0469	518.01
28.0613	513.30
28.0757	515.49
28.0902	529.56
28.1046	495.46
28.1191	540.68
28.1335	504.03
28.1479	500.67
28.1624	502.59
28.1768	528.82
28.1913	504.30
28.2057	497.48
28.2201	544.89
28.2346	501.41
28.2490	520.70
28.2635	498.00
28.2779	469.85
28.2923	512.42
28.3068	515.03
28.3212	502.01
28.3357	553.28
28.3501	527.16
28.3645	503.72
28.3790	506.97
28.3934	475.00
28.4079	507.18
28.4223	508.12
28.4367	505.49
28.4512	491.96
28.4656	489.64
28.4801	490.35
28.4945	523.61
28.5089	501.01
28.5234	502.66
28.5378	534.28
28.5523	516.07
28.5667	503.13
28.5811	517.68
28.5956	486.89
28.6100	510.87
28.6245	485.69
28.6389	523.30
28.6533	531.21
28.6678	504.97
28.6822	517.85
28.6967	491.75
28.7111	491.14
28.7255	523.12
28.7400	506.62
28.7544	493.07
28.7689	510.08
28.7833	517.98
28.7977	512.26
28.8122	492.67
28.8266	523.39
28.8411	512.03
28.8555	493.34
28.8699	519.56
28.8844	517.04
28.8988	529.91
28.9133	518.56
28.9277	532.06
28.9421	508.02
28.9566	470.58
28.9710	528.28
28.9855	500.94
28.9999	468.13
29.0143	492.27
29.0288	478.55
29.0432	476.04
29.0577	546.48
29.0721	511.23
29.0865	554.15
29.1010	494.75
29.1154	486.79
29.1299	494.96
29.1443	496.51
29.1587	496.88
29.1732	472.06
29.1876	475.97
29.2021	488.94
29.2165	496.74
29.2309	465.89
29.2454	518.32
29.2598	470.56
29.2743	528.85
29.2887	516.70
29.3031	536.68
29.3176	482.92
29.3320	492.97
29.3465	493.18
29.3609	514.83
29.3753	510.44
29.3898	509.51
29.4042	488.60
29.4187	529.48
29.4331	514.73
29.4475	486.37
29.4620	503.39
29.4764	539.58
29.4909	517.98
29.5053	498.38
29.5197	479.40
29.5342	498.17
29.5486	514.21
29.5631	496.67
29.5775	526.95
29.5919	547.81
29.6064	507.74
29.6208	509.04
29.6353	535.17
29.6497	502.83
29.6641	508.83
29.6786	498.18
29.6930	492.54
29.7075	492.52
29.7219	491.93
29.7363	524.62
29.7508	488.58
29.7652	483.07
29.7797	472.05
29.7941	500.99
29.8085	505.79
29.8230	515.16
29.8374	514.96
29.8519	523.85
29.8663	528.51
29.8807	528.11
29.8952	530.94
29.9096	473.26
29.9241	479.24
29.9385	500.10
29.9529	520.32
29.9674	498.09
29.9818	460.35
29.9963	484.79
30.0107	514.41
30.0251	530.13
30.0396	555.60
30.0540	544.35
30.0685	479.10
30.0829	468.90
30.0973	500.67
30.1118	502.37
30.1262	533.27
30.1407	523.30
30.1551	529.23
30.1695	534.96
30.1840	495.05
30.1984	483.94
30.2129	515.39
30.2273	515.94
30.2417	502.58
30.2562	516.65
30.2706	504.46
30.2851	507.84
30.2995	502.82
30.3139	521.52
30.3284	492.18
30.3428	521.59
30.3573	517.65
30.3717	510.27
30.3861	486.28
30.4006	541.69
30.4150	537.91
30.4295	540.57
30.4439	550.78
30.4583	531.58
30.4728	604.60
30.4872	581.69
30.5017	620.22
30.5161	639.67
30.5305	684.74
30.5450	728.91
30.5594	781.83
30.5739	771.11
30.5883	729.20
30.6028	756.83
30.6172	720.72
30.6316	706.23
30.6461	686.07
30.6605	644.86
30.6750	639.66
30.6894	618.60
30.7038	604.15
30.7183	574.36
30.7327	556.51
30.7472	550.52
30.7616	534.76
30.7760	554.01
30.7905	551.41
30.8049	546.39
30.8194	526.66
30.8338	547.89
30.8482	508.11
30.8627	533.90
30.8771	503.36
30.8916	523.65
30.9060	535.51
30.9204	508.81
30.9349	515.72
30.9493	512.83
30.9638	509.97
30.9782	501.49
30.9926	496.35
31.0071	512.41
31.0215	525.67
31.0360	501.16
31.0504	485.78
31.0648	516.18
31.0793	511.73
31.0937	515.07
31.1082	513.30
31.1226	497.46
31.1370	526.37
31.1515	519.92
31.1659	525.94
31.1804	497.32
31.1948	516.29
31.2092	526.88
31.2237	502.44
31.2381	519.02
31.2526	518.94
31.2670	515.15
31.2814	537.79
31.2959	543.41
31.3103	528.35
31.3248	535.24
31.3392	525.88
31.3536	521.20
31.3681	533.68
31.3825	528.14
31.3970	522.03
31.4114	511.53
31.4258	541.11
31.4403	494.40
31.4547	482.22
31.4692	510.73
31.4836	518.63
31.4980	499.87
31.5125	482.26
31.5269	504.32
31.5414	521.43
31.5558	512.91
31.5702	526.32
31.5847	471.53
31.5991	515.82
31.6136	543.88
31.6280	534.43
31.6424	527.58
31.6569	524.33
31.6713	533.39
31.6858	482.38
31.7002	488.92
31.7146	499.93
31.7291	497.57
31.7435	555.93
31.7580	544.57
31.7724	480.44
31.7868	492.01
31.8013	492.89
31.8157	530.33
31.8302	496.42
31.8446	479.58
31.8590	509.74
31.8735	512.51
31.8879	469.19
31.9024	500.58
31.9168	516.69
31.9312	509.84
31.9457	516.07
31.9601	507.07
31.9746	521.62
31.9890	523.91
32.0034	494.63
32.0179	521.55
32.0323	504.27
32.0468	497.74
32.0612	542.96
32.0756	512.28
32.0901	473.10
32.1045	452.01
32.1190	535.77
32.1334	537.44
32.1478	471.27
32.1623	487.88
32.1767	485.18
32.1912	488.03
32.2056	486.43
32.2200	520.30
32.2345	496.88
32.2489	511.31
32.2634	454.35
32.2778	530.02
32.2922	539.97
32.3067	534.20
32.3211	513.68
32.3356	502.99
32.3500	505.07
32.3644	521.68
32.3789	479.33
32.3933	464.94
32.4078	488.39
32.4222	505.66
32.4366	505.31
32.4511	503.91
32.4655	502.81
32.4800	490.36
32.4944	529.40
32.5088	493.89
32.5233	466.74
32.5377	498.88
32.5522	530.32
32.5666	505.60
32.5810	510.30
32.5955	501.14
32.6099	508.23
32.6244	519.56
32.6388	495.18
32.6532	472.06
32.6677	522.32
32.6821	487.49
32.6966	485.40
32.7110	500.67
32.7254	509.61
32.7399	487.16
32.7543	501.86
32.7688	533.21
32.7832	529.89
32.7976	516.83
32.8121	515.95
32.8265	505.90
32.8410	511.68
32.8554	476.73
32.8698	514.17
32.8843	503.76
32.8987	506.07
32.9132	475.66
32.9276	469.76
32.9420	472.71
32.9565	489.70
32.9709	513.84
32.9854	500.74
32.9998	529.27
33.0142	511.62
33.0287	504.04
33.0431	488.99
33.0576	478.95
33.0720	521.85
33.0864	498.03
33.1009	456.19
33.1153	499.06
33.1298	488.18
33.1442	474.06
33.1586	492.22
33.1731	515.75
33.1875	489.78
33.2020	484.34
33.2164	514.76
33.2308	524.70
33.2453	517.16
33.2597	524.22
33.2742	482.63
33.2886	490.57
33.3030	511.14
33.3175	514.98
33.3319	484.15
33.3464	518.92
33.3608	510.02
33.3752	505.44
33.3897	482.22
33.4041	490.51
33.4186	505.10
33.4330	498.39
33.4474	483.28
33.4619	502.17
33.4763	500.61
33.4908	509.36
33.5052	518.18
33.5196	486.09
33.5341	495.53
33.5485	480.39
33.5630	503.78
33.5774	498.55
33.5918	525.11
33.6063	548.65
33.6207	517.36
33.6352	546.06
33.6496	524.61
33.6640	491.60
33.6785	475.73
33.6929	491.01
33.7074	502.25
33.7218	498.37
33.7362	472.45
33.7507	501.18
33.7651	507.40
33.7796	520.37
33.7940	518.22
33.8084	502.95
33.8229	511.77
33.8373	517.48
33.8518	490.29
33.8662	484.04
33.8806	480.54
33.8951	526.32
33.9095	505.11
33.9240	479.99
33.9384	497.99
33.9528	500.02
33.9673	501.39
33.9817	493.04
33.9962	516.64
34.0106	492.23
34.0250	492.06
34.0395	522.53
34.0539	529.63
34.0684	505.75
34.0828	523.28
34.0972	513.76
34.1117	479.44
34.1261	503.93
34.1406	499.07
34.1550	478.57
34.1694	491.83
34.1839	504.81
34.1983	481.50
34.2128	474.14
34.2272	519.69
34.2417	518.33
34.2561	481.15
34.2705	527.00
34.2850	495.28
34.2994	479.73
34.3139	504.85
34.3283	484.61
34.3427	508.77
34.3572	482.50
34.3716	492.88
34.3861	496.28
34.4005	500.54
34.4149	478.50
34.4294	494.14
34.4438	510.92
34.4583	493.56
34.4727	512.60
34.4871	509.05
34.5016	509.02
34.5160	524.00
34.5305	499.35
34.5449	509.73
34.5593	548.73
34.5738	500.87
34.5882	507.79
34.6027	516.27
34.6171	504.04
34.6315	501.41
34.6460	503.48
34.6604	547.07
34.6749	498.50
34.6893	492.04
34.7037	495.82
34.7182	464.32
34.7326	501.41
34.7471	497.95
34.7615	481.33
34.7759	504.06
34.7904	490.69
34.8048	483.37
34.8193	489.68
34.8337	513.52
34.8481	522.31
34.8626	509.29
34.8770	529.87
34.8915	517.34
34.9059	512.32
34.9203	512.22
34.9348	500.56
34.9492	486.97
34.9637	492.79
34.9781	494.72
34.9925	497.43
35.0070	507.94
35.0214	506.98
35.0359	505.06
35.0503	495.45
35.0647	478.41
35.0792	511.47
35.0936	561.45
35.1081	533.97
35.1225	503.37
35.1369	498.12
35.1514	478.03
35.1658	526.08
35.1803	511.14
35.1947	508.03
35.2091	492.41
35.2236	532.05
35.2380	512.59
35.2525	513.05
35.2669	503.01
35.2813	519.41
35.2958	501.10
35.3102	523.01
35.3247	501.95
35.3391	484.69
35.3535	521.53
35.3680	512.86
35.3824	529.31
35.3969	534.39
35.4113	522.66
35.4257	543.06
35.4402	510.59
35.4546	522.45
35.4691	524.23
35.4835	542.31
35.4979	529.70
35.5124	523.87
35.5268	541.92
35.5413	552.98
35.5557	541.06
35.5701	557.41
35.5846	538.58
35.5990	537.09
35.6135	495.55
35.6279	528.90
35.6423	556.09
35.6568	558.16
35.6712	554.56
35.6857	604.60
35.7001	697.27
35.7145	783.11
35.7290	729.42
35.7434	648.40
35.7579	639.38
35.7723	626.75
35.7867	672.68
35.8012	763.20
35.8156	755.03
35.8301	713.29
35.8445	756.59
35.8589	772.20
35.8734	878.47
35.8878	979.36
35.9023	1089.13
35.9167	1093.82
35.9311	1170.26
35.9456	1492.11
35.9600	1815.71
35.9745	2008.93
35.9889	2188.82
36.0033	2564.01
36.0178	3003.76
36.0322	3049.04
36.0467	2905.68
36.0611	2268.70
36.0755	1994.03
36.0900	2294.59
36.1044	2421.54
36.1189	1851.37
36.1333	1304.14
36.1477	1117.54
36.1622	1074.96
36.1766	979.77
36.1911	856.16
36.2055	766.51
36.2199	749.11
36.2344	709.61
36.2488	707.66
36.2633	598.94
36.2777	535.25
36.2921	511.58
36.3066	517.86
36.3210	538.08
36.3355	572.81
36.3499	541.54
36.3643	520.31
36.3788	532.41
36.3932	525.64
36.4077	534.17
36.4221	503.42
36.4365	537.04
36.4510	509.64
36.4654	532.72
36.4799	548.98
36.4943	546.09
36.5087	508.83
36.5232	536.43
36.5376	555.50
36.5521	502.41
36.5665	541.68
36.5809	538.43
36.5954	539.83
36.6098	509.15
36.6243	515.86
36.6387	520.14
36.6531	515.37
36.6676	519.76
36.6820	514.57
36.6965	501.05
36.7109	563.19
36.7253	542.93
36.7398	518.01
36.7542	548.24
36.7687	537.32
36.7831	547.12
36.7975	550.46
36.8120	543.26
36.8264	552.71
36.8409	573.93
36.8553	601.13
36.8697	603.25
36.8842	587.45
36.8986	620.19
36.9131	600.56
36.9275	519.89
36.9419	564.01
36.9564	544.21
36.9708	504.23
36.9853	551.98
36.9997	561.57
37.0141	533.70
37.0286	547.21
37.0430	523.51
37.0575	533.21
37.0719	495.77
37.0863	510.46
37.1008	527.67
37.1152	501.76
37.1297	527.78
37.1441	511.94
37.1585	532.48
37.1730	518.72
37.1874	516.96
37.2019	466.48
37.2163	492.37
37.2307	485.31
37.2452	501.50
37.2596	492.72
37.2741	489.98
37.2885	524.75
37.3029	512.04
37.3174	539.65
37.3318	527.68
37.3463	522.29
37.3607	501.97
37.3751	488.89
37.3896	482.65
37.4040	460.10
37.4185	464.38
37.4329	511.84
37.4473	491.20
37.4618	505.61
37.4762	539.62
37.4907	534.40
37.5051	483.29
37.5195	492.09
37.5340	535.60
37.5484	502.07
37.5629	517.14
37.5773	499.90
37.5917	483.58
37.6062	495.36
37.6206	510.94
37.6351	498.27
37.6495	486.23
37.6639	483.54
37.6784	503.81
37.6928	525.73
37.7073	538.24
37.7217	561.68
37.7361	507.49
37.7506	522.91
37.7650	506.51
37.7795	530.35
37.7939	521.68
37.8083	501.30
37.8228	487.46
37.8372	544.58
37.8517	532.77
37.8661	501.63
37.8805	514.09
37.8950	504.37
37.9094	500.23
37.9239	493.60
37.9383	541.20
37.9528	502.65
37.9672	514.71
37.9816	507.81
37.9961	494.52
38.0105	516.53
38.0250	524.45
38.0394	482.91
38.0538	483.47
38.0683	498.09
38.0827	487.74
38.0972	502.86
38.1116	508.07
38.1260	501.94
38.1405	499.24
38.1549	496.91
38.1694	495.33
38.1838	465.16
38.1982	476.45
38.2127	532.61
38.2271	516.59
38.2416	479.97
38.2560	490.04
38.2704	516.65
38.2849	500.61
38.2993	486.44
38.3138	469.61
38.3282	514.68
38.3426	502.29
38.3571	499.89
38.3715	519.70
38.3860	543.26
38.4004	523.73
38.4148	567.22
38.4293	571.31
38.4437	557.11
38.4582	593.92
38.4726	612.34
38.4870	673.21
38.5015	729.16
38.5159	789.07
38.5304	776.35
38.5448	750.00
38.5592	794.20
38.5737	759.30
38.5881	738.44
38.6026	669.92
38.6170	709.63
38.6314	723.64
38.6459	673.47
38.6603	645.00
38.6748	576.82
38.6892	572.56
38.7036	597.14
38.7181	496.63
38.7325	490.93
38.7470	520.18
38.7614	521.73
38.7758	521.06
38.7903	500.50
38.8047	514.83
38.8192	515.08
38.8336	513.91
38.8480	482.64
38.8625	496.92
38.8769	533.96
38.8914	505.88
38.9058	506.83
38.9202	512.39
38.9347	521.85
38.9491	541.09
38.9636	539.34
38.9780	501.07
38.9924	484.46
39.0069	510.23
39.0213	519.87
39.0358	522.70
39.0502	512.99
39.0646	521.02
39.0791	482.10
39.0935	500.31
39.1080	522.22
39.1224	527.70
39.1368	493.32
39.1513	482.19
39.1657	505.98
39.1802	504.42
39.1946	479.74
39.2090	517.34
39.2235	518.59
39.2379	514.85
39.2524	521.62
39.2668	478.35
39.2812	491.05
39.2957	476.00
39.3101	492.22
39.3246	513.03
39.3390	498.48
39.3534	512.05
39.3679	508.65
39.3823	506.58
39.3968	488.07
39.4112	482.58
39.4256	496.63
39.4401	499.17
39.4545	486.70
39.4690	506.32
39.4834	531.97
39.4978	498.74
39.5123	489.83
39.5267	505.40
39.5412	504.74
39.5556	479.03
39.5700	479.21
39.5845	498.26
39.5989	468.85
39.6134	491.79
39.6278	475.25
39.6422	489.92
39.6567	506.81
39.6711	484.47
39.6856	517.81
39.7000	515.76
39.7144	509.67
39.7289	497.46
39.7433	490.30
39.7578	508.60
39.7722	474.99
39.7866	526.16
39.8011	512.72
39.8155	500.84
39.8300	512.32
39.8444	435.40
39.8588	484.87
39.8733	549.15
39.8877	500.69
39.9022	520.68
39.9166	492.38
39.9310	499.52
39.9455	529.03
39.9599	486.57
39.9744	505.61
39.9888	480.02
40.0032	508.24
40.0177	513.22
40.0321	494.00
40.0466	495.84
40.0610	485.10
40.0754	498.85
40.0899	489.06
40.1043	475.73
40.1188	498.78
40.1332	517.26
40.1476	471.93
40.1621	527.87
40.1765	510.73
40.1910	495.85
40.2054	516.48
40.2198	535.67
40.2343	539.98
40.2487	500.33
40.2632	476.43
40.2776	480.23
40.2920	515.30
40.3065	528.48
40.3209	476.09
40.3354	502.77
40.3498	519.63
40.3642	476.02
40.3787	500.34
40.3931	489.59
40.4076	485.34
40.4220	511.34
40.4364	518.61
40.4509	491.76
40.4653	480.18
40.4798	494.95
40.4942	538.99
40.5086	497.89
40.5231	439.92
40.5375	475.56
40.5520	495.96
40.5664	486.61
40.5808	493.38
40.5953	471.71
40.6097	540.20
40.6242	522.33
40.6386	513.14
40.6530	467.89
40.6675	483.40
40.6819	479.56
40.6964	491.22
40.7108	492.77
40.7252	504.28
40.7397	463.78
40.7541	468.13
40.7686	537.15
40.7830	512.65
40.7974	481.81
40.8119	535.15
40.8263	511.06
40.8408	474.96
40.8552	529.36
40.8696	482.48
40.8841	498.54
40.8985	496.04
40.9130	502.32
40.9274	500.99
40.9418	549.62
40.9563	506.58
40.9707	479.49
40.9852	480.50
40.9996	492.34
41.0140	512.50
41.0285	477.94
41.0429	455.69
41.0574	442.19
41.0718	512.67
41.0862	528.80
41.1007	489.13
41.1151	480.07
41.1296	493.34
41.1440	469.95
41.1584	525.85
41.1729	490.08
41.1873	484.40
41.2018	477.31
41.2162	506.03
41.2306	480.08
41.2451	491.79
41.2595	508.13
41.2740	506.36
41.2884	492.94
41.3028	520.09
41.3173	512.28
41.3317	506.12
41.3462	529.12
41.3606	519.57
41.3750	489.42
41.3895	510.20
41.4039	473.92
41.4184	492.54
41.4328	530.20
41.4472	478.31
41.4617	497.75
41.4761	530.44
41.4906	494.06
41.5050	468.58
41.5194	503.40
41.5339	514.53
41.5483	504.58
41.5628	497.17
41.5772	531.08
41.5916	498.77
41.6061	467.80
41.6205	525.71
41.6350	487.99
41.6494	481.88
41.6639	516.67
41.6783	513.62
41.6927	473.54
41.7072	509.66
41.7216	493.98
41.7361	469.19
41.7505	490.29
41.7649	503.11
41.7794	537.08
41.7938	521.15
41.8083	496.46
41.8227	519.01
41.8371	523.24
41.8516	544.08
41.8660	531.97
41.8805	546.94
41.8949	533.56
41.9093	523.31
41.9238	539.79
41.9382	542.72
41.9527	562.52
41.9671	571.55
41.9815	561.20
41.9960	579.75
42.0104	568.74
42.0249	585.10
42.0393	586.63
42.0537	590.10
42.0682	564.22
42.0826	604.79
42.0971	571.98
42.1115	533.72
42.1259	577.56
42.1404	569.36
42.1548	592.70
42.1693	667.37
42.1837	707.89
42.1981	743.91
42.2126	804.74
42.2270	922.80
42.2415	1027.56
42.2559	1181.70
42.2703	1333.65
42.2848	1468.33
42.2992	1568.30
42.3137	1624.44
42.3281	1600.42
42.3425	1527.45
42.3570	1457.55
42.3714	1359.13
42.3859	1269.46
42.4003	1263.49
42.4147	1291.87
42.4292	1271.59
42.4436	1091.58
42.4581	995.82
42.4725	916.84
42.4869	812.34
42.5014	702.72
42.5158	670.38
42.5303	652.97
42.5447	594.11
42.5591	586.86
42.5736	584.86
42.5880	615.62
42.6025	609.91
42.6169	577.56
42.6313	592.12
42.6458	556.01
42.6602	553.99
42.6747	534.90
42.6891	527.37
42.7035	544.50
42.7180	546.51
42.7324	534.92
42.7469	526.44
42.7613	512.80
42.7757	534.32
42.7902	512.41
42.8046	528.89
42.8191	514.08
42.8335	481.81
42.8479	512.47
42.8624	539.77
42.8768	544.27
42.8913	522.59
42.9057	533.22
42.9201	510.83
42.9346	537.84
42.9490	521.76
42.9635	506.01
42.9779	519.89
42.9923	515.16
43.0068	513.83
43.0212	500.38
43.0357	541.94
43.0501	486.42
43.0645	475.93
43.0790	500.04
43.0934	564.60
43.1079	556.35
43.1223	524.20
43.1367	513.70
43.1512	510.96
43.1656	514.97
43.1801	534.60
43.1945	510.74
43.2089	504.37
43.2234	540.67
43.2378	524.01
43.2523	499.44
43.2667	515.18
43.2811	527.03
43.2956	518.98
43.3100	537.27
43.3245	524.50
43.3389	538.23
43.3533	518.06
43.3678	500.54
43.3822	507.35
43.3967	504.77
43.4111	489.21
43.4255	509.79
43.4400	496.33
43.4544	502.92
43.4689	556.83
43.4833	521.93
43.4977	525.28
43.5122	531.24
43.5266	503.06
43.5411	523.31
43.5555	520.87
43.5699	490.44
43.5844	487.29
43.5988	515.47
43.6133	529.67
43.6277	580.97
43.6421	534.63
43.6566	520.10
43.6710	552.72
43.6855	585.76
43.6999	619.18
43.7143	606.25
43.7288	617.95
43.7432	644.99
43.7577	666.78
43.7721	704.39
43.7865	636.99
43.8010	603.82
43.8154	591.08
43.8299	617.28
43.8443	613.55
43.8587	589.70
43.8732	617.24
43.8876	609.61
43.9021	566.01
43.9165	532.35
43.9309	545.59
43.9454	540.76
43.9598	499.90
43.9743	496.91
43.9887	502.04
44.0031	496.56
44.0176	513.71
44.0320	490.44
44.0465	513.30
44.0609	499.76
44.0753	518.16
44.0898	521.29
44.1042	496.83
44.1187	482.54
44.1331	489.97
44.1475	490.16
44.1620	476.36
44.1764	535.56
44.1909	527.52
44.2053	524.32
44.2197	520.93
44.2342	506.75
44.2486	533.26
44.2631	561.56
44.2775	525.75
44.2919	476.75
44.3064	535.68
44.3208	535.66
44.3353	538.27
44.3497	526.06
44.3641	561.45
44.3786	535.71
44.3930	543.26
44.4075	548.71
44.4219	568.33
44.4363	565.81
44.4508	555.04
44.4652	608.10
44.4797	619.57
44.4941	584.77
44.5085	584.09
44.5230	556.09
44.5374	577.80
44.5519	591.85
44.5663	548.80
44.5807	596.62
44.5952	580.42
44.6096	555.74
44.6241	576.49
44.6385	592.77
44.6529	560.81
44.6674	563.10
44.6818	582.78
44.6963	653.49
44.7107	632.51
44.7251	645.76
44.7396	726.52
44.7540	769.26
44.7685	825.75
44.7829	904.76
44.7973	873.93
44.8118	866.07
44.8262	831.48
44.8407	741.19
44.8551	769.42
44.8695	723.78
44.8840	711.98
44.8984	759.48
44.9129	754.19
44.9273	705.27
44.9417	676.02
44.9562	656.40
44.9706	601.02
44.9851	554.11
44.9995	563.97
45.0139	534.77
45.0284	515.45
45.0428	535.07
45.0573	559.40
45.0717	531.40
45.0861	526.92
45.1006	556.40
45.1150	559.90
45.1295	523.85
45.1439	512.31
45.1583	507.65
45.1728	501.06
45.1872	485.72
45.2017	486.49
45.2161	507.75
45.2305	519.85
45.2450	488.81
45.2594	502.26
45.2739	486.99
45.2883	497.70
45.3028	529.55
45.3172	502.06
45.3316	488.55
45.3461	491.95
45.3605	516.99
45.3750	473.35
45.3894	494.86
45.4038	476.31
45.4183	500.12
45.4327	530.67
45.4472	507.35
45.4616	479.76
45.4760	500.11
45.4905	522.82
45.5049	527.99
45.5194	479.20
45.5338	521.36
45.5482	509.31
45.5627	508.05
45.5771	508.28
45.5916	514.85
45.6060	505.74
45.6204	514.91
45.6349	495.87
45.6493	503.33
45.6638	557.65
45.6782	479.08
45.6926	488.44
45.7071	524.84
45.7215	527.72
45.7360	495.91
45.7504	498.91
45.7648	501.00
45.7793	523.44
45.7937	500.76
45.8082	521.60
45.8226	490.05
45.8370	508.53
45.8515	510.59
45.8659	507.13
45.8804	484.96
45.8948	465.07
45.9092	510.16
45.9237	515.38
45.9381	500.01
45.9526	481.98
45.9670	486.20
45.9814	514.93
45.9959	491.86
46.0103	475.53
46.0248	466.42
46.0392	480.51
46.0536	497.14
46.0681	496.09
46.0825	506.02
46.0970	503.35
46.1114	517.89
46.1258	522.85
46.1403	496.19
46.1547	473.23
46.1692	509.58
46.1836	529.45
46.1980	490.27
46.2125	499.71
46.2269	511.48
46.2414	503.47
46.2558	495.61
46.2702	509.71
46.2847	531.20
46.2991	502.16
46.3136	500.12
46.3280	527.46
46.3424	504.20
46.3569	511.70
46.3713	513.86
46.3858	503.14
46.4002	477.12
46.4146	464.84
46.4291	506.78
46.4435	485.39
46.4580	495.99
46.4724	508.07
46.4868	492.09
46.5013	474.73
46.5157	481.14
46.5302	485.49
46.5446	495.22
46.5590	465.39
46.5735	516.23
46.5879	507.43
46.6024	482.04
46.6168	495.08
46.6312	504.71
46.6457	469.54
46.6601	492.50
46.6746	477.43
46.6890	465.19
46.7034	476.97
46.7179	499.47
46.7323	455.60
46.7468	488.50
46.7612	499.76
46.7756	506.10
46.7901	498.03
46.8045	496.68
46.8190	530.07
46.8334	509.43
46.8478	484.85
46.8623	509.13
46.8767	506.38
46.8912	484.89
46.9056	520.38
46.9200	531.13
46.9345	509.70
46.9489	512.35
46.9634	506.84
46.9778	519.51
46.9922	532.54
47.0067	500.72
47.0211	502.80
47.0356	494.33
47.0500	519.49
47.0644	467.72
47.0789	485.48
47.0933	485.61
47.1078	487.45
47.1222	503.08
47.1366	483.40
47.1511	455.81
47.1655	475.51
47.1800	493.70
47.1944	502.59
47.2088	518.22
47.2233	499.82
47.2377	512.22
47.2522	503.89
47.2666	490.84
47.2810	551.65
47.2955	535.41
47.3099	493.18
47.3244	517.82
47.3388	516.61
47.3532	505.47
47.3677	490.85
47.3821	500.90
47.3966	516.66
47.4110	496.54
47.4254	512.21
47.4399	493.76
47.4543	510.92
47.4688	509.57
47.4832	530.04
47.4976	522.32
47.5121	522.11
47.5265	490.60
47.5410	483.67
47.5554	499.51
47.5698	498.15
47.5843	491.36
47.5987	480.15
47.6132	525.78
47.6276	508.11
47.6420	515.84
47.6565	488.63
47.6709	479.05
47.6854	498.72
47.6998	485.15
47.7142	479.15
47.7287	478.43
47.7431	524.78
47.7576	511.14
47.7720	479.67
47.7864	519.67
47.8009	533.01
47.8153	488.62
47.8298	506.12
47.8442	512.31
47.8586	518.15
47.8731	507.66
47.8875	553.02
47.9020	563.56
47.9164	471.93
47.9308	471.53
47.9453	515.50
47.9597	488.74
47.9742	482.58
47.9886	518.01
48.0030	485.95
48.0175	500.16
48.0319	523.94
48.0464	514.47
48.0608	524.76
48.0752	500.55
48.0897	530.63
48.1041	501.38
48.1186	499.41
48.1330	522.68
48.1474	522.93
48.1619	506.52
48.1763	489.53
48.1908	470.87
48.2052	504.26
48.2196	479.79
48.2341	507.22
48.2485	515.24
48.2630	521.28
48.2774	517.28
48.2918	495.79
48.3063	477.99
48.3207	506.46
48.3352	513.70
48.3496	502.53
48.3640	499.54
48.3785	505.03
48.3929	521.51
48.4074	531.75
48.4218	546.98
48.4362	515.59
48.4507	512.58
48.4651	524.70
48.4796	533.49
48.4940	474.62
48.5084	505.06
48.5229	516.31
48.5373	509.70
48.5518	497.02
48.5662	529.58
48.5806	524.78
48.5951	524.24
48.6095	510.90
48.6240	482.27
48.6384	504.12
48.6528	495.35
48.6673	495.72
48.6817	496.26
48.6962	510.11
48.7106	531.66
48.7250	548.05
48.7395	492.55
48.7539	522.23
48.7684	534.93
48.7828	544.71
48.7972	521.00
48.8117	551.76
48.8261	535.49
48.8406	514.99
48.8550	515.24
48.8694	516.09
48.8839	532.58
48.8983	559.60
48.9128	559.65
48.9272	560.23
48.9416	548.03
48.9561	531.07
48.9705	571.22
48.9850	563.85
48.9994	581.91
49.0139	609.52
49.0283	565.07
49.0427	644.37
49.0572	636.12
49.0716	643.21
49.0861	760.60
49.1005	664.48
49.1149	708.96
49.1294	714.23
49.1438	758.70
49.1583	825.25
49.1727	913.45
49.1871	922.43
49.2016	997.79
49.2160	1028.49
49.2305	1180.84
49.2449	1223.75
49.2593	1317.30
49.2738	1369.26
49.2882	1487.58
49.3027	1589.39
49.3171	1657.86
49.3315	1738.52
49.3460	1844.21
49.3604	1809.18
49.3749	1836.73
49.3893	1819.63
49.4037	1767.97
49.4182	1809.14
49.4326	1769.59
49.4471	1673.83
49.4615	1605.75
49.4759	1576.28
49.4904	1498.75
49.5048	1411.81
49.5193	1305.97
49.5337	1249.12
49.5481	1213.90
49.5626	1179.34
49.5770	1052.73
49.5915	994.56
49.6059	916.49
49.6203	868.83
49.6348	818.97
49.6492	743.84
49.6637	751.25
49.6781	704.13
49.6925	660.53
49.7070	663.73
49.7214	655.27
49.7359	606.26
49.7503	632.09
49.7647	583.23
49.7792	575.20
49.7936	570.57
49.8081	579.37
49.8225	571.12
49.8369	590.09
49.8514	568.89
49.8658	557.01
49.8803	539.85
49.8947	536.17
49.9091	552.61
49.9236	538.03
49.9380	571.09
49.9525	515.57
49.9669	490.91
49.9813	531.76
49.9958	536.63
50.0102	535.29
50.0247	522.90
50.0391	502.94
50.0535	483.20
50.0680	533.32
50.0824	522.50
50.0969	506.78
50.1113	508.75
50.1257	568.64
50.1402	489.43
50.1546	493.64
50.1691	566.02
50.1835	521.84
50.1979	508.41
50.2124	530.03
50.2268	513.29
50.2413	515.30
50.2557	512.22
50.2701	500.32
50.2846	507.55
50.2990	469.97
50.3135	503.05
50.3279	535.60
50.3423	512.92
50.3568	509.44
50.3712	503.75
50.3857	498.65
50.4001	502.42
50.4145	524.59
50.4290	527.58
50.4434	505.39
50.4579	485.05
50.4723	517.31
50.4867	536.39
50.5012	510.08
50.5156	522.54
50.5301	535.46
50.5445	505.17
50.5589	497.14
50.5734	510.30
50.5878	484.70
50.6023	505.71
50.6167	514.22
50.6311	519.92
50.6456	539.79
50.6600	520.85
50.6745	482.98
50.6889	487.11
50.7033	499.40
50.7178	500.76
50.7322	517.94
50.7467	500.48
50.7611	497.67
50.7755	510.01
50.7900	517.54
50.8044	493.95
50.8189	532.07
50.8333	528.25
50.8477	514.29
50.8622	505.68
50.8766	491.10
50.8911	473.63
50.9055	495.44
50.9199	491.91
50.9344	489.96
50.9488	498.17
50.9633	487.72
50.9777	463.19
50.9921	522.22
51.0066	536.75
51.0210	559.64
51.0355	516.70
51.0499	496.36
51.0643	486.21
51.0788	479.02
51.0932	493.11
51.1077	490.09
51.1221	490.75
51.1365	494.49
51.1510	526.67
51.1654	506.55
51.1799	519.57
51.1943	519.33
51.2087	520.25
51.2232	521.23
51.2376	530.12
51.2521	532.08
51.2665	503.61
51.2809	493.65
51.2954	513.92
51.3098	467.84
51.3243	508.82
51.3387	530.10
51.3531	530.29
51.3676	508.72
51.3820	506.11
51.3965	531.71
51.4109	513.98
51.4253	541.44
51.4398	514.20
51.4542	502.29
51.4687	539.13
51.4831	547.35
51.4975	535.04
51.5120	484.16
51.5264	466.13
51.5409	504.85
51.5553	538.10
51.5697	493.15
51.5842	525.51
51.5986	480.51
51.6131	484.36
51.6275	517.96
51.6419	503.04
51.6564	484.23
51.6708	504.93
51.6853	504.10
51.6997	522.54
51.7141	554.44
51.7286	547.56
51.7430	504.39
51.7575	527.37
51.7719	504.06
51.7863	511.64
51.8008	504.23
51.8152	489.89
51.8297	518.33
51.8441	535.69
51.8585	489.40
51.8730	539.67
51.8874	512.21
51.9019	535.83
51.9163	518.94
51.9307	499.47
51.9452	502.87
51.9596	454.45
51.9741	491.95
51.9885	512.69
52.0029	495.23
52.0174	484.28
52.0318	501.13
52.0463	533.05
52.0607	511.00
52.0751	472.19
52.0896	487.34
52.1040	497.99
52.1185	509.00
52.1329	529.47
52.1473	455.87
52.1618	488.36
52.1762	494.85
52.1907	503.81
52.2051	495.01
52.2195	500.79
52.2340	489.00
52.2484	511.02
52.2629	480.73
52.2773	483.79
52.2917	481.20
52.3062	513.24
52.3206	498.00
52.3351	477.00
52.3495	464.84
52.3639	490.92
52.3784	482.77
52.3928	472.01
52.4073	482.36
52.4217	523.51
52.4361	525.99
52.4506	516.39
52.4650	500.40
52.4795	536.17
52.4939	546.63
52.5083	522.12
52.5228	507.48
52.5372	504.14
52.5517	485.01
52.5661	531.84
52.5805	510.09
52.5950	510.03
52.6094	504.19
52.6239	494.43
52.6383	526.69
52.6527	486.86
52.6672	523.38
52.6816	512.26
52.6961	527.66
52.7105	525.69
52.7250	490.90
52.7394	493.33
52.7538	520.62
52.7683	487.81
52.7827	517.99
52.7972	476.47
52.8116	531.36
52.8260	544.57
52.8405	500.52
52.8549	512.83
52.8694	506.55
52.8838	487.94
52.8982	529.08
52.9127	502.08
52.9271	508.70
52.9416	499.46
52.9560	496.16
52.9704	514.83
52.9849	519.48
52.9993	501.73
53.0138	474.41
53.0282	490.25
53.0426	487.83
53.0571	562.86
53.0715	507.67
53.0860	530.48
53.1004	525.21
53.1148	537.35
53.1293	537.89
53.1437	512.54
53.1582	521.32
53.1726	512.33
53.1870	506.14
53.2015	483.40
53.2159	504.95
53.2304	490.17
53.2448	525.50
53.2592	531.18
53.2737	495.70
53.2881	518.28
53.3026	528.00
53.3170	534.48
53.3314	495.49
53.3459	503.88
53.3603	510.99
53.3748	504.94
53.3892	495.03
53.4036	504.91
53.4181	493.01
53.4325	484.83
53.4470	487.59
53.4614	519.08
53.4758	501.46
53.4903	509.69
53.5047	538.60
53.5192	535.15
53.5336	524.89
53.5480	534.30
53.5625	506.91
53.5769	520.64
53.5914	494.36
53.6058	499.72
53.6202	511.02
53.6347	523.78
53.6491	476.30
53.6636	484.31
53.6780	510.32
53.6924	519.77
53.7069	516.94
53.7213	502.36
53.7358	502.06
53.7502	495.33
53.7646	517.10
53.7791	495.64
53.7935	534.61
53.8080	508.79
53.8224	538.66
53.8368	507.76
53.8513	529.63
53.8657	503.26
53.8802	501.01
53.8946	535.28
53.9090	533.54
53.9235	523.43
53.9379	530.83
53.9524	530.90
53.9668	512.31
53.9812	549.40
53.9957	520.15
54.0101	495.67
54.0246	548.12
54.0390	524.53
54.0534	530.36
54.0679	504.04
54.0823	542.90
54.0968	548.76
54.1112	505.74
54.1256	534.95
54.1401	521.30
54.1545	495.10
54.1690	583.19
54.1834	566.58
54.1978	567.49
54.2123	593.23
54.2267	593.67
54.2412	584.54
54.2556	582.14
54.2700	633.93
54.2845	675.42
54.2989	632.88
54.3134	636.29
54.3278	621.81
54.3422	595.10
54.3567	594.86
54.3711	573.46
54.3856	560.09
54.4000	569.90
54.4144	586.36
54.4289	616.58
54.4433	579.30
54.4578	558.57
54.4722	582.48
54.4866	548.75
54.5011	535.77
54.5155	529.26
54.5300	545.37
54.5444	545.74
54.5588	497.31
54.5733	504.86
54.5877	512.15
54.6022	504.18
54.6166	514.56
54.6310	511.73
54.6455	503.92
54.6599	499.12
54.6744	498.02
54.6888	497.54
54.7032	520.47
54.7177	527.06
54.7321	518.92
54.7466	528.89
54.7610	514.28
54.7754	520.35
54.7899	508.27
54.8043	488.39
54.8188	495.94
54.8332	508.62
54.8476	529.68
54.8621	536.72
54.8765	516.49
54.8910	480.21
54.9054	520.61
54.9198	520.21
54.9343	516.39
54.9487	516.72
54.9632	514.17
54.9776	509.44
54.9920	517.80
55.0065	536.10
55.0209	543.98
55.0354	521.38
55.0498	494.36
55.0642	490.00
55.0787	475.61
55.0931	511.79
55.1076	531.70
55.1220	505.43
55.1364	489.05
55.1509	471.21
55.1653	515.57
55.1798	518.61
55.1942	487.63
55.2086	485.26
55.2231	504.12
55.2375	510.25
55.2520	543.84
55.2664	523.73
55.2808	530.99
55.2953	511.43
55.3097	502.32
55.3242	490.54
55.3386	553.04
55.3530	519.33
55.3675	509.20
55.3819	515.15
55.3964	510.16
55.4108	508.70
55.4252	530.80
55.4397	526.77
55.4541	515.83
55.4686	528.42
55.4830	489.53
55.4974	474.10
55.5119	493.77
55.5263	525.71
55.5408	535.22
55.5552	508.47
55.5696	537.28
55.5841	493.12
55.5985	472.98
55.6130	526.08
55.6274	506.84
55.6418	517.52
55.6563	527.96
55.6707	538.29
55.6852	521.09
55.6996	496.29
55.7140	489.62
55.7285	502.23
55.7429	510.14
55.7574	530.11
55.7718	533.89
55.7862	575.61
55.8007	526.84
55.8151	532.49
55.8296	517.64
55.8440	493.33
55.8584	530.25
55.8729	535.66
55.8873	510.33
55.9018	512.66
55.9162	547.73
55.9306	506.49
55.9451	494.62
55.9595	505.98
55.9740	533.57
55.9884	512.47
56.0028	536.10
56.0173	525.08
56.0317	542.68
56.0462	548.48
56.0606	540.99
56.0750	526.60
56.0895	545.24
56.1039	522.63
56.1184	506.96
56.1328	489.07
56.1472	482.86
56.1617	530.08
56.1761	518.16
56.1906	520.25
56.2050	506.69
56.2194	508.81
56.2339	537.23
56.2483	523.54
56.2628	503.93
56.2772	524.34
56.2916	560.42
56.3061	508.03
56.3205	516.30
56.3350	534.09
56.3494	501.95
56.3639	508.98
56.3783	516.76
56.3927	513.28
56.4072	499.55
56.4216	537.61
56.4361	525.80
56.4505	524.61
56.4649	543.18
56.4794	538.94
56.4938	526.96
56.5083	533.85
56.5227	506.50
56.5371	539.90
56.5516	521.05
56.5660	534.09
56.5805	535.79
56.5949	544.52
56.6093	490.21
56.6238	498.02
56.6382	491.63
56.6527	494.57
56.6671	495.02
56.6815	508.89
56.6960	516.10
56.7104	510.66
56.7249	492.58
56.7393	511.24
56.7537	519.81
56.7682	513.36
56.7826	560.54
56.7971	496.27
56.8115	515.92
56.8259	536.07
56.8404	550.05
56.8548	528.22
56.8693	510.21
56.8837	520.44
56.8981	524.38
56.9126	536.83
56.9270	502.80
56.9415	554.67
56.9559	501.73
56.9703	503.69
56.9848	514.51
56.9992	517.61
57.0137	516.09
57.0281	497.82
57.0425	489.35
57.0570	516.48
57.0714	490.72
57.0859	529.93
57.1003	517.23
57.1147	558.78
57.1292	570.78
57.1436	540.66
57.1581	517.10
57.1725	516.14
57.1869	507.97
57.2014	541.83
57.2158	525.43
57.2303	485.99
57.2447	515.04
57.2591	524.29
57.2736	503.39
57.2880	509.85
57.3025	529.75
57.3169	535.15
57.3313	540.90
57.3458	523.32
57.3602	529.59
57.3747	510.92
57.3891	534.43
57.4035	494.88
57.4180	512.32
57.4324	554.28
57.4469	502.31
57.4613	534.81
57.4757	531.09
57.4902	544.04
57.5046	535.35
57.5191	535.17
57.5335	519.26
57.5479	515.73
57.5624	507.17
57.5768	546.64
57.5913	537.13
57.6057	513.23
57.6201	496.08
57.6346	549.65
57.6490	519.29
57.6635	529.36
57.6779	522.91
57.6923	542.89
57.7068	570.33
57.7212	568.26
57.7357	548.77
57.7501	552.25
57.7645	561.30
57.7790	605.86
57.7934	599.01
57.8079	636.20
57.8223	668.79
57.8367	699.96
57.8512	763.96
57.8656	772.30
57.8801	774.98
57.8945	781.19
57.9089	745.28
57.9234	738.17
57.9378	708.54
57.9523	685.56
57.9667	651.78
57.9811	612.14
57.9956	653.02
58.0100	667.38
58.0245	679.81
58.0389	704.07
58.0533	646.79
58.0678	633.34
58.0822	607.93
58.0967	571.61
58.1111	565.83
58.1255	588.78
58.1400	563.05
58.1544	583.95
58.1689	588.97
58.1833	540.29
58.1977	533.52
58.2122	581.13
58.2266	598.90
58.2411	573.26
58.2555	531.90
58.2699	529.33
58.2844	528.68
58.2988	573.10
58.3133	541.18
58.3277	508.56
58.3421	499.13
58.3566	516.71
58.3710	531.06
58.3855	516.77
58.3999	524.59
58.4143	530.65
58.4288	559.60
58.4432	528.33
58.4577	474.70
58.4721	518.28
58.4865	522.99
58.5010	526.69
58.5154	525.46
58.5299	528.00
58.5443	524.77
58.5587	547.09
58.5732	501.89
58.5876	547.88
58.6021	557.79
58.6165	533.21
58.6309	538.26
58.6454	560.26
58.6598	524.55
58.6743	546.59
58.6887	547.59
58.7031	528.42
58.7176	532.78
58.7320	497.16
58.7465	536.18
58.7609	512.02
58.7753	502.70
58.7898	513.94
58.8042	538.93
58.8187	550.02
58.8331	530.14
58.8475	511.93
58.8620	518.43
58.8764	531.43
58.8909	532.08
58.9053	553.08
58.9197	529.39
58.9342	524.36
58.9486	537.79
58.9631	527.22
58.9775	501.22
58.9919	502.10
59.0064	521.75
59.0208	526.64
59.0353	505.63
59.0497	548.31
59.0641	556.17
59.0786	500.27
59.0930	555.11
59.1075	568.53
59.1219	531.36
59.1363	536.31
59.1508	517.98
59.1652	549.38
59.1797	548.13
59.1941	533.71
59.2085	519.33
59.2230	537.19
59.2374	541.20
59.2519	514.86
59.2663	529.37
59.2807	549.02
59.2952	563.99
59.3096	512.72
59.3241	543.11
59.3385	546.06
59.3529	540.18
59.3674	546.88
59.3818	524.82
59.3963	551.08
59.4107	552.56
59.4251	578.76
59.4396	542.67
59.4540	570.15
59.4685	564.37
59.4829	544.82
59.4973	544.74
59.5118	555.70
59.5262	580.33
59.5407	553.00
59.5551	562.43
59.5695	561.24
59.5840	540.57
59.5984	546.69
59.6129	556.78
59.6273	532.85
59.6417	533.96
59.6562	555.50
59.6706	540.14
59.6851	526.26
59.6995	521.78
59.7139	565.56
59.7284	515.51
59.7428	534.38
59.7573	579.75
59.7717	534.90
59.7861	495.28
59.8006	498.67
59.8150	568.31
59.8295	520.94
59.8439	558.76
59.8583	559.89
59.8728	542.45
59.8872	535.54
59.9017	537.41
59.9161	515.90
59.9305	545.74
59.9450	532.31
59.9594	501.80
59.9739	505.46
59.9883	523.30
60.0027	513.79
60.0172	568.16
60.0316	541.01
60.0461	534.46
60.0605	532.13
60.0750	536.70
60.0894	546.03
60.1038	527.18
60.1183	555.60
60.1327	542.22
60.1472	506.09
60.1616	517.52
60.1760	524.18
60.1905	521.34
60.2049	526.94
60.2194	531.39
60.2338	540.75
60.2482	542.78
60.2627	556.72
60.2771	540.87
60.2916	505.96
60.3060	531.80
60.3204	551.64
60.3349	521.01
60.3493	501.70
60.3638	535.70
60.3782	560.87
60.3926	524.56
60.4071	490.10
60.4215	509.25
60.4360	556.49
60.4504	519.73
60.4648	542.02
60.4793	540.98
60.4937	568.70
60.5082	588.76
60.5226	567.22
60.5370	556.89
60.5515	552.34
60.5659	532.27
60.5804	526.11
60.5948	552.17
60.6092	508.60
60.6237	520.68
60.6381	552.38
60.6526	541.12
60.6670	525.79
60.6814	488.94
60.6959	504.70
60.7103	521.42
60.7248	505.08
60.7392	506.23
60.7536	530.74
60.7681	487.23
60.7825	483.19
60.7970	526.45
60.8114	542.95
60.8258	538.36
60.8403	531.84
60.8547	521.38
60.8692	563.27
60.8836	513.32
60.8980	584.34
60.9125	531.52
60.9269	538.30
60.9414	501.49
60.9558	542.99
60.9702	487.76
60.9847	497.11
60.9991	535.44
61.0136	511.94
61.0280	573.78
61.0424	527.20
61.0569	517.09
61.0713	546.34
61.0858	562.13
61.1002	617.10
61.1146	557.03
61.1291	529.17
61.1435	501.77
61.1580	540.45
61.1724	545.20
61.1868	532.34
61.2013	592.74
61.2157	578.72
61.2302	574.03
61.2446	545.05
61.2590	552.97
61.2735	521.34
61.2879	505.98
61.3024	526.62
61.3168	571.38
61.3312	559.13
61.3457	546.47
61.3601	536.82
61.3746	533.30
61.3890	530.01
61.4034	553.59
61.4179	539.17
61.4323	561.76
61.4468	519.80
61.4612	531.59
61.4756	564.87
61.4901	536.08
61.5045	527.29
61.5190	526.79
61.5334	549.99
61.5478	551.32
61.5623	540.92
61.5767	524.47
61.5912	526.63
61.6056	514.45
61.6200	541.29
61.6345	542.26
61.6489	572.45
61.6634	544.94
61.6778	524.94
61.6922	539.26
61.7067	578.87
61.7211	539.60
61.7356	527.01
61.7500	543.18
61.7644	536.68
61.7789	555.73
61.7933	553.40
61.8078	532.73
61.8222	504.79
61.8366	576.90
61.8511	548.54
61.8655	529.35
61.8800	549.04
61.8944	562.56
61.9088	530.76
61.9233	528.72
61.9377	547.57
61.9522	527.70
61.9666	532.32
61.9810	523.10
61.9955	523.60
62.0099	539.02
62.0244	555.86
62.0388	556.73
62.0532	568.22
62.0677	582.75
62.0821	545.18
62.0966	552.07
62.1110	539.41
62.1254	583.67
62.1399	564.07
62.1543	562.81
62.1688	575.89
62.1832	562.03
62.1976	516.63
62.2121	513.13
62.2265	529.49
62.2410	533.06
62.2554	536.90
62.2698	534.47
62.2843	521.60
62.2987	527.65
62.3132	565.78
62.3276	557.99
62.3420	583.84
62.3565	533.48
62.3709	554.37
62.3854	558.54
62.3998	555.62
62.4142	548.04
62.4287	583.03
62.4431	538.37
62.4576	530.54
62.4720	553.73
62.4864	558.98
62.5009	576.97
62.5153	540.32
62.5298	520.09
62.5442	542.40
62.5586	532.28
62.5731	515.67
62.5875	533.17
62.6020	527.99
62.6164	537.81
62.6308	543.29
62.6453	563.99
62.6597	559.76
62.6742	563.02
62.6886	506.86
62.7030	558.23
62.7175	567.77
62.7319	537.01
62.7464	571.77
62.7608	537.87
62.7752	568.47
62.7897	601.40
62.8041	580.56
62.8186	542.83
62.8330	553.61
62.8474	538.34
62.8619	562.79
62.8763	534.17
62.8908	505.28
62.9052	550.79
62.9196	570.64
62.9341	576.90
62.9485	585.43
62.9630	550.98
62.9774	548.98
62.9918	558.80
63.0063	541.54
63.0207	552.35
63.0352	573.58
63.0496	556.01
63.0640	560.20
63.0785	559.50
63.0929	582.40
63.1074	582.33
63.1218	600.80
63.1362	551.32
63.1507	529.60
63.1651	535.65
63.1796	583.23
63.1940	596.40
63.2084	560.32
63.2229	570.51
63.2373	569.28
63.2518	603.83
63.2662	585.65
63.2806	592.42
63.2951	582.51
63.3095	573.78
63.3240	588.40
63.3384	577.23
63.3528	557.83
63.3673	597.76
63.3817	594.53
63.3962	589.93
63.4106	606.73
63.4250	663.77
63.4395	635.88
63.4539	664.13
63.4684	711.36
63.4828	730.47
63.4972	786.45
63.5117	783.12
63.5261	831.49
63.5406	877.30
63.5550	949.97
63.5694	948.50
63.5839	954.63
63.5983	961.92
63.6128	880.78
63.6272	808.07
63.6416	820.42
63.6561	796.43
63.6705	810.70
63.6850	767.81
63.6994	799.43
63.7138	813.61
63.7283	795.21
63.7427	789.51
63.7572	770.87
63.7716	762.56
63.7861	750.72
63.8005	683.35
63.8149	674.91
63.8294	658.50
63.8438	616.79
63.8583	640.43
63.8727	654.88
63.8871	594.99
63.9016	631.69
63.9160	615.42
63.9305	640.50
63.9449	607.14
63.9593	590.74
63.9738	637.60
63.9882	633.65
64.0027	629.23
64.0171	612.43
64.0315	625.88
64.0460	644.06
64.0604	615.40
64.0749	597.44
64.0893	565.64
64.1037	613.18
64.1182	630.42
64.1326	592.47
64.1471	568.99
64.1615	552.14
64.1759	598.85
64.1904	581.66
64.2048	577.34
64.2193	572.91
64.2337	581.98
64.2481	600.74
64.2626	571.77
64.2770	572.40
64.2915	593.71
64.3059	593.83
64.3203	596.18
64.3348	604.24
64.3492	605.74
64.3637	621.26
64.3781	596.14
64.3925	617.29
64.4070	573.69
64.4214	627.10
64.4359	589.39
64.4503	596.55
64.4647	629.14
64.4792	578.07
64.4936	609.95
64.5081	618.93
64.5225	607.91
64.5369	613.94
64.5514	604.62
64.5658	608.87
64.5803	567.14
64.5947	603.31
64.6091	651.27
64.6236	590.91
64.6380	651.09
64.6525	669.99
64.6669	623.80
64.6813	623.86
64.6958	622.51
64.7102	668.66
64.7247	694.92
64.7391	655.95
64.7535	693.14
64.7680	682.29
64.7824	717.39
64.7969	765.20
64.8113	746.69
64.8257	757.26
64.8402	779.18
64.8546	834.94
64.8691	836.95
64.8835	804.90
64.8979	791.81
64.9124	883.91
64.9268	872.57
64.9413	918.89
64.9557	926.24
64.9701	916.66
64.9846	1019.26
64.9990	1056.52
65.0135	1152.18
65.0279	1400.34
65.0423	1683.10
65.0568	2046.44
65.0712	2494.63
65.0857	3229.26
65.1001	4236.31
65.1145	5874.23
65.1290	7770.29
65.1434	9143.83
65.1579	10675.45
65.1723	11604.14
65.1867	11003.94
65.2012	9809.39
65.2156	8230.27
65.2301	6641.80
65.2445	5289.09
65.2589	4471.24
65.2734	4085.32
65.2878	4223.81
65.3023	4725.86
65.3167	5431.86
65.3311	6299.36
65.3456	6702.26
65.3600	6878.99
65.3745	6389.14
65.3889	5394.90
65.4033	4408.35
65.4178	3423.70
65.4322	2785.54
65.4467	2118.86
65.4611	1729.48
65.4755	1440.81
65.4900	1250.67
65.5044	1137.49
65.5189	1004.82
65.5333	949.63
65.5477	928.96
65.5622	920.65
65.5766	861.31
65.5911	804.64
65.6055	766.82
65.6199	722.27
65.6344	758.50
65.6488	740.87
65.6633	743.52
65.6777	705.60
65.6921	701.54
65.7066	702.61
65.7210	705.29
65.7355	677.03
65.7499	668.65
65.7643	642.53
65.7788	667.65
65.7932	676.56
65.8077	658.35
65.8221	653.53
65.8365	681.72
65.8510	658.13
65.8654	659.88
65.8799	648.95
65.8943	646.02
65.9087	598.08
65.9232	582.06
65.9376	633.86
65.9521	665.24
65.9665	585.50
65.9809	606.96
65.9954	610.82
66.0098	649.05
66.0243	571.62
66.0387	590.85
66.0531	648.11
66.0676	695.78
66.0820	645.05
66.0965	620.84
66.1109	615.99
66.1253	610.53
66.1398	586.51
66.1542	559.17
66.1687	595.89
66.1831	618.94
66.1975	591.93
66.2120	617.99
66.2264	632.09
66.2409	618.31
66.2553	614.13
66.2697	573.10
66.2842	592.42
66.2986	601.27
66.3131	629.91
66.3275	604.07
66.3419	630.24
66.3564	591.02
66.3708	598.78
66.3853	562.90
66.3997	579.07
66.4141	592.14
66.4286	617.03
66.4430	591.18
66.4575	589.86
66.4719	614.27
66.4863	606.40
66.5008	576.80
66.5152	593.58
66.5297	592.62
66.5441	600.99
66.5585	572.31
66.5730	584.30
66.5874	587.86
66.6019	588.85
66.6163	574.24
66.6307	588.07
66.6452	579.86
66.6596	555.19
66.6741	598.48
66.6885	604.29
66.7029	600.35
66.7174	594.84
66.7318	594.45
66.7463	581.97
66.7607	562.94
66.7751	561.91
66.7896	600.63
66.8040	611.51
66.8185	587.12
66.8329	594.60
66.8473	602.73
66.8618	565.40
66.8762	572.41
66.8907	590.21
66.9051	579.30
66.9195	555.74
66.9340	563.50
66.9484	555.18
66.9629	561.62
66.9773	591.83
66.9917	610.88
67.0062	604.42
67.0206	604.47
67.0351	596.78
67.0495	557.69
67.0639	575.46
67.0784	539.50
67.0928	566.79
67.1073	582.85
67.1217	600.27
67.1361	595.23
67.1506	551.90
67.1650	579.95
67.1795	564.06
67.1939	585.75
67.2083	601.00
67.2228	569.06
67.2372	566.98
67.2517	572.02
67.2661	552.46
67.2805	598.74
67.2950	588.40
67.3094	562.67
67.3239	572.24
67.3383	590.01
67.3527	569.33
67.3672	597.13
67.3816	586.64
67.3961	572.22
67.4105	592.94
67.4250	588.90
67.4394	582.45
67.4538	537.14
67.4683	566.72
67.4827	637.14
67.4972	580.39
67.5116	568.98
67.5260	567.01
67.5405	598.17
67.5549	583.87
67.5694	565.65
67.5838	560.88
67.5982	559.51
67.6127	586.48
67.6271	571.80
67.6416	589.09
67.6560	567.07
67.6704	566.73
67.6849	555.63
67.6993	563.36
67.7138	577.01
67.7282	576.43
67.7426	544.04
67.7571	550.42
67.7715	547.01
67.7860	597.55
67.8004	565.89
67.8148	561.26
67.8293	548.18
67.8437	542.84
67.8582	546.75
67.8726	548.21
67.8870	562.39
67.9015	614.22
67.9159	567.73
67.9304	571.47
67.9448	572.19
67.9592	567.36
67.9737	578.67
67.9881	557.33
68.0026	597.19
68.0170	554.95
68.0314	554.53
68.0459	541.34
68.0603	569.56
68.0748	599.06
68.0892	599.09
68.1036	570.04
68.1181	584.20
68.1325	589.73
68.1470	567.51
68.1614	556.00
68.1758	573.48
68.1903	567.21
68.2047	547.65
68.2192	570.21
68.2336	570.10
68.2480	543.32
68.2625	529.96
68.2769	570.51
68.2914	565.62
68.3058	546.79
68.3202	576.92
68.3347	585.96
68.3491	569.18
68.3636	601.03
68.3780	574.57
68.3924	556.39
68.4069	539.30
68.4213	577.29
68.4358	562.24
68.4502	579.16
68.4646	561.46
68.4791	580.59
68.4935	550.26
68.5080	580.10
68.5224	572.41
68.5368	591.74
68.5513	570.93
68.5657	603.75
68.5802	587.81
68.5946	541.37
68.6090	540.59
68.6235	519.95
68.6379	560.42
68.6524	542.68
68.6668	582.58
68.6812	582.72
68.6957	581.85
68.7101	573.54
68.7246	574.91
68.7390	562.18
68.7534	558.09
68.7679	573.60
68.7823	579.03
68.7968	580.59
68.8112	567.81
68.8256	582.87
68.8401	554.14
68.8545	554.48
68.8690	598.12
68.8834	558.05
68.8978	522.60
68.9123	597.44
68.9267	577.96
68.9412	562.69
68.9556	557.27
68.9700	555.79
68.9845	518.42
68.9989	561.62
69.0134	529.83
69.0278	563.07
69.0422	593.84
69.0567	574.06
69.0711	606.80
69.0856	593.47
69.1000	583.52
69.1144	569.08
69.1289	613.87
69.1433	572.70
69.1578	540.35
69.1722	524.65
69.1866	575.03
69.2011	636.29
69.2155	612.31
69.2300	551.24
69.2444	551.83
69.2588	579.66
69.2733	547.23
69.2877	595.86
69.3022	591.59
69.3166	551.20
69.3310	577.20
69.3455	503.24
69.3599	567.90
69.3744	553.96
69.3888	542.06
69.4032	503.57
69.4177	543.75
69.4321	575.87
69.4466	594.07
69.4610	601.46
69.4754	564.34
69.4899	557.60
69.5043	569.35
69.5188	563.71
69.5332	584.34
69.5476	570.79
69.5621	588.40
69.5765	554.77
69.5910	510.17
69.6054	546.49
69.6198	551.91
69.6343	634.77
69.6487	544.56
69.6632	535.25
69.6776	579.25
69.6920	558.60
69.7065	633.58
69.7209	613.54
69.7354	548.29
69.7498	613.22
69.7642	537.43
69.7787	615.41
69.7931	578.27
69.8076	565.80
69.8220	548.64
69.8364	582.79
69.8509	522.92
69.8653	537.30
69.8798	547.27
69.8942	564.25
69.9086	601.10
69.9231	536.94
69.9375	576.29
69.9520	593.42
69.9664	585.40
69.9808	515.96
69.9953	585.44
70.0097	593.25
70.0242	549.84
70.0386	529.22
70.0530	592.76
70.0675	611.22
70.0819	582.28
70.0964	566.42
70.1108	608.09
70.1252	594.29
70.1397	505.62
70.1541	520.71
70.1686	549.23
70.1830	608.51
70.1974	588.66
70.2119	625.75
70.2263	568.69
70.2408	581.85
70.2552	537.46
70.2696	550.13
70.2841	532.57
70.2985	548.05
70.3130	578.11
70.3274	613.18
70.3418	599.03
70.3563	622.21
70.3707	597.07
70.3852	597.41
70.3996	566.11
70.4140	554.65
70.4285	574.79
70.4429	556.35
70.4574	544.83
70.4718	571.41
70.4862	535.51
70.5007	546.16
70.5151	590.29
70.5296	614.41
70.5440	585.65
70.5584	570.54
70.5729	548.72
70.5873	539.65
70.6018	551.28
70.6162	547.48
70.6306	541.31
70.6451	508.07
70.6595	598.43
70.6740	594.13
70.6884	557.61
70.7028	580.26
70.7173	578.96
70.7317	558.72
70.7462	594.88
70.7606	589.78
70.7750	580.77
70.7895	559.50
70.8039	538.16
70.8184	577.20
70.8328	614.94
70.8472	598.04
70.8617	579.67
70.8761	599.15
70.8906	563.82
70.9050	599.00
70.9194	553.78
70.9339	555.70
70.9483	583.75
70.9628	604.45
70.9772	555.94
70.9916	548.05
71.0061	541.80
71.0205	576.49
71.0350	600.63
71.0494	571.56
71.0638	548.21
71.0783	538.21
71.0927	537.89
71.1072	566.94
71.1216	601.03
71.1361	580.37
71.1505	559.81
71.1649	575.78
71.1794	570.80
71.1938	579.49
71.2083	610.71
71.2227	557.59
71.2371	568.48
71.2516	582.31
71.2660	598.49
71.2805	605.79
71.2949	580.35
71.3093	527.16
71.3238	531.26
71.3382	599.27
71.3527	593.32
71.3671	585.44
71.3815	600.79
71.3960	575.52
71.4104	533.20
71.4249	573.55
71.4393	605.70
71.4537	522.91
71.4682	576.57
71.4826	583.65
71.4971	583.74
71.5115	548.50
71.5259	516.68
71.5404	545.08
71.5548	572.92
71.5693	544.74
71.5837	516.18
71.5981	555.51
71.6126	550.46
71.6270	601.83
71.6415	626.13
71.6559	564.18
71.6703	630.89
71.6848	621.49
71.6992	559.65
71.7137	593.72
71.7281	548.07
71.7425	564.01
71.7570	601.65
71.7714	577.61
71.7859	602.60
71.8003	589.70
71.8147	520.50
71.8292	533.53
71.8436	554.27
71.8581	576.42
71.8725	605.64
71.8869	558.27
71.9014	604.32
71.9158	634.07
71.9303	516.39
71.9447	529.61
71.9591	563.32
71.9736	532.45
71.9880	554.56
72.0025	543.04
72.0169	572.57
72.0313	635.90
72.0458	576.22
72.0602	537.02
72.0747	540.21
72.0891	523.61
72.1035	584.16
72.1180	658.50
72.1324	665.56
72.1469	560.52
72.1613	615.91
72.1757	639.83
72.1902	604.16
72.2046	571.80
72.2191	572.20
72.2335	526.19
72.2479	546.34
72.2624	548.72
72.2768	537.79
72.2913	586.58
72.3057	643.97
72.3201	610.32
72.3346	632.25
72.3490	646.12
72.3635	642.83
72.3779	568.01
72.3923	581.43
72.4068	570.57
72.4212	527.27
72.4357	557.84
72.4501	567.24
72.4645	571.45
72.4790	578.96
72.4934	579.12
72.5079	572.33
72.5223	591.72
72.5367	561.65
72.5512	580.65
72.5656	549.56
72.5801	550.12
72.5945	592.53
72.6089	572.22
72.6234	564.30
72.6378	599.91
72.6523	533.41
72.6667	548.11
72.6811	567.57
72.6956	524.76
72.7100	563.77
72.7245	597.20
72.7389	579.04
72.7533	545.63
72.7678	577.24
72.7822	594.00
72.7967	633.67
72.8111	608.12
72.8255	545.70
72.8400	506.30
72.8544	518.64
72.8689	525.92
72.8833	567.49