2022.09.19 19:37:17
Îáðàçåö: ß÷åéêà LCoV 16-09-2022
Lambda1 = 1.54060
Lambda2 = 1.54439
Lambdam = 1.54186
R = 0.497
2Theta	I

line¹ 0 ;repeat¹ 0
22.1120	530.77
22.1264	616.87
22.1409	576.85
22.1553	498.62
22.1697	596.63
22.1842	516.84
22.1986	501.46
22.2131	568.95
22.2275	603.08
22.2419	560.13
22.2564	544.05
22.2708	555.51
22.2853	528.34
22.2997	563.99
22.3141	606.98
22.3286	666.31
22.3430	626.45
22.3575	589.61
22.3719	534.84
22.3863	547.13
22.4008	574.70
22.4152	579.34
22.4297	635.28
22.4441	643.72
22.4585	642.60
22.4730	521.02
22.4874	575.41
22.5019	644.91
22.5163	609.24
22.5307	561.84
22.5452	487.99
22.5596	570.83
22.5741	691.52
22.5885	591.08
22.6029	529.39
22.6174	540.29
22.6318	521.83
22.6463	523.61
22.6607	564.65
22.6751	617.59
22.6896	572.10
22.7040	569.57
22.7185	547.82
22.7329	469.80
22.7473	562.11
22.7618	551.92
22.7762	552.56
22.7907	606.79
22.8051	593.31
22.8195	540.81
22.8340	582.40
22.8484	603.85
22.8629	609.66
22.8773	599.35
22.8917	550.77
22.9062	651.29
22.9206	625.51
22.9351	559.12
22.9495	618.37
22.9639	568.00
22.9784	557.64
22.9928	592.35
23.0073	579.73
23.0217	537.79
23.0361	540.21
23.0506	587.56
23.0650	607.55
23.0795	583.41
23.0939	661.97
23.1083	533.16
23.1228	576.03
23.1372	539.39
23.1517	486.01
23.1661	530.85
23.1806	567.37
23.1950	537.23
23.2094	610.29
23.2239	560.82
23.2383	572.10
23.2528	572.92
23.2672	564.63
23.2816	600.07
23.2961	616.10
23.3105	550.64
23.3250	536.90
23.3394	535.74
23.3538	550.56
23.3683	552.76
23.3827	575.44
23.3972	504.73
23.4116	607.82
23.4260	593.02
23.4405	513.88
23.4549	554.74
23.4694	596.90
23.4838	596.59
23.4982	556.87
23.5127	524.89
23.5271	582.13
23.5416	556.44
23.5560	563.14
23.5704	521.40
23.5849	518.07
23.5993	596.31
23.6138	584.24
23.6282	535.76
23.6426	529.97
23.6571	479.26
23.6715	514.75
23.6860	617.08
23.7004	584.62
23.7148	581.63
23.7293	575.13
23.7437	460.79
23.7582	551.77
23.7726	510.77
23.7870	568.74
23.8015	530.89
23.8159	514.74
23.8304	593.58
23.8448	540.00
23.8592	574.13
23.8737	530.79
23.8881	584.61
23.9026	585.89
23.9170	566.01
23.9314	509.17
23.9459	584.01
23.9603	495.04
23.9748	533.54
23.9892	515.20
24.0036	557.96
24.0181	611.75
24.0325	637.04
24.0470	578.47
24.0614	571.33
24.0758	503.45
24.0903	611.84
24.1047	585.23
24.1192	553.95
24.1336	612.68
24.1480	546.12
24.1625	562.08
24.1769	601.25
24.1914	539.79
24.2058	550.39
24.2202	606.90
24.2347	575.63
24.2491	526.29
24.2636	580.98
24.2780	584.77
24.2924	593.05
24.3069	600.21
24.3213	627.28
24.3358	624.84
24.3502	532.60
24.3646	578.02
24.3791	520.03
24.3935	538.85
24.4080	585.39
24.4224	564.72
24.4368	586.83
24.4513	525.93
24.4657	591.99
24.4802	618.45
24.4946	536.08
24.5090	555.30
24.5235	591.02
24.5379	561.52
24.5524	544.02
24.5668	509.99
24.5812	543.43
24.5957	596.01
24.6101	569.95
24.6246	567.60
24.6390	530.33
24.6534	575.78
24.6679	515.61
24.6823	549.11
24.6968	533.15
24.7112	551.99
24.7256	553.85
24.7401	550.95
24.7545	513.89
24.7690	526.98
24.7834	538.29
24.7978	591.23
24.8123	538.44
24.8267	565.46
24.8412	557.44
24.8556	519.24
24.8700	570.70
24.8845	597.14
24.8989	539.33
24.9134	539.00
24.9278	530.72
24.9422	554.27
24.9567	502.96
24.9711	534.67
24.9856	572.76
25.0000	571.33
25.0144	504.71
25.0289	540.08
25.0433	550.33
25.0578	541.32
25.0722	526.84
25.0866	527.98
25.1011	539.41
25.1155	570.94
25.1300	577.54
25.1444	550.60
25.1588	569.58
25.1733	584.80
25.1877	548.35
25.2022	524.36
25.2166	556.35
25.2310	575.37
25.2455	581.63
25.2599	482.80
25.2744	522.55
25.2888	568.27
25.3032	544.81
25.3177	535.61
25.3321	562.96
25.3466	544.37
25.3610	527.05
25.3754	531.21
25.3899	471.65
25.4043	515.82
25.4188	538.46
25.4332	531.07
25.4476	539.95
25.4621	559.22
25.4765	559.43
25.4910	547.36
25.5054	552.21
25.5198	522.95
25.5343	544.52
25.5487	522.41
25.5632	514.98
25.5776	508.74
25.5920	540.09
25.6065	535.64
25.6209	532.67
25.6354	524.02
25.6498	546.52
25.6642	510.74
25.6787	517.70
25.6931	501.99
25.7076	518.49
25.7220	536.48
25.7364	524.97
25.7509	523.85
25.7653	541.55
25.7798	553.91
25.7942	527.35
25.8086	569.35
25.8231	530.62
25.8375	507.60
25.8520	517.88
25.8664	513.20
25.8808	492.96
25.8953	539.77
25.9097	544.36
25.9242	527.98
25.9386	563.00
25.9530	523.17
25.9675	519.49
25.9819	582.02
25.9964	538.27
26.0108	518.56
26.0252	522.20
26.0397	522.70
26.0541	518.83
26.0686	534.48
26.0830	581.03
26.0974	568.83
26.1119	516.75
26.1263	526.88
26.1408	508.85
26.1552	496.79
26.1696	555.12
26.1841	532.07
26.1985	497.46
26.2130	536.03
26.2274	506.39
26.2418	537.10
26.2563	547.34
26.2707	496.25
26.2852	497.35
26.2996	509.48
26.3140	545.11
26.3285	534.56
26.3429	528.25
26.3574	487.97
26.3718	496.52
26.3862	505.85
26.4007	540.55
26.4151	549.04
26.4296	518.43
26.4440	486.87
26.4584	539.14
26.4729	570.97
26.4873	552.41
26.5018	534.55
26.5162	541.47
26.5306	514.47
26.5451	506.60
26.5595	499.06
26.5740	506.00
26.5884	537.27
26.6028	532.61
26.6173	544.87
26.6317	538.12
26.6462	526.95
26.6606	544.02
26.6750	520.11
26.6895	520.29
26.7039	519.49
26.7184	552.43
26.7328	498.96
26.7472	482.17
26.7617	527.83
26.7761	556.16
26.7906	517.59
26.8050	509.85
26.8194	535.94
26.8339	553.09
26.8483	514.86
26.8628	520.10
26.8772	512.12
26.8917	511.22
26.9061	543.75
26.9205	552.88
26.9350	552.91
26.9494	513.91
26.9639	526.61
26.9783	499.10
26.9927	514.56
27.0072	530.06
27.0216	535.83
27.0361	524.82
27.0505	510.13
27.0649	540.05
27.0794	526.78
27.0938	523.09
27.1083	538.32
27.1227	519.44
27.1371	499.27
27.1516	523.52
27.1660	540.63
27.1805	522.38
27.1949	517.26
27.2093	527.21
27.2238	490.67
27.2382	493.62
27.2527	502.31
27.2671	494.58
27.2815	493.64
27.2960	497.36
27.3104	529.22
27.3249	557.68
27.3393	557.72
27.3537	533.48
27.3682	500.71
27.3826	513.43
27.3971	522.27
27.4115	518.37
27.4259	518.52
27.4404	523.59
27.4548	501.81
27.4693	541.29
27.4837	533.78
27.4981	504.26
27.5126	486.85
27.5270	516.27
27.5415	528.43
27.5559	521.11
27.5703	513.95
27.5848	492.50
27.5992	489.65
27.6137	495.87
27.6281	522.41
27.6425	517.44
27.6570	502.45
27.6714	490.54
27.6859	498.37
27.7003	505.86
27.7147	484.76
27.7292	509.45
27.7436	542.77
27.7581	522.79
27.7725	551.54
27.7869	564.23
27.8014	513.81
27.8158	511.24
27.8303	501.83
27.8447	500.82
27.8591	511.37
27.8736	516.19
27.8880	504.54
27.9025	518.10
27.9169	488.49
27.9313	490.74
27.9458	525.46
27.9602	467.83
27.9747	501.17
27.9891	495.55
28.0035	514.00
28.0180	541.75
28.0324	508.16
28.0469	475.11
28.0613	552.89
28.0757	506.00
28.0902	491.20
28.1046	516.18
28.1191	483.01
28.1335	518.02
28.1479	509.91
28.1624	512.49
28.1768	537.10
28.1913	496.55
28.2057	516.27
28.2201	531.28
28.2346	518.79
28.2490	533.01
28.2635	511.83
28.2779	498.76
28.2923	484.63
28.3068	511.75
28.3212	518.84
28.3357	506.08
28.3501	477.71
28.3645	480.27
28.3790	535.55
28.3934	514.43
28.4079	510.50
28.4223	533.76
28.4367	503.12
28.4512	534.16
28.4656	503.57
28.4801	517.90
28.4945	527.37
28.5089	510.46
28.5234	504.61
28.5378	496.50
28.5523	532.71
28.5667	503.44
28.5811	516.35
28.5956	524.59
28.6100	506.15
28.6245	525.09
28.6389	539.42
28.6533	530.61
28.6678	508.97
28.6822	492.49
28.6967	535.38
28.7111	538.07
28.7255	516.18
28.7400	518.42
28.7544	553.13
28.7689	523.61
28.7833	529.49
28.7977	512.00
28.8122	529.64
28.8266	492.93
28.8411	508.01
28.8555	536.95
28.8699	517.56
28.8844	492.58
28.8988	536.27
28.9133	515.32
28.9277	530.06
28.9421	516.39
28.9566	501.84
28.9710	495.56
28.9855	484.13
28.9999	471.45
29.0143	492.54
29.0288	513.97
29.0432	477.19
29.0577	497.55
29.0721	476.46
29.0865	505.65
29.1010	504.31
29.1154	515.68
29.1299	521.71
29.1443	506.13
29.1587	501.74
29.1732	500.77
29.1876	497.17
29.2021	485.66
29.2165	503.01
29.2309	499.45
29.2454	505.96
29.2598	502.01
29.2743	500.50
29.2887	506.83
29.3031	490.40
29.3176	542.06
29.3320	504.48
29.3465	515.85
29.3609	521.06
29.3753	519.12
29.3898	474.64
29.4042	500.30
29.4187	531.65
29.4331	520.88
29.4475	499.77
29.4620	519.18
29.4764	528.35
29.4909	527.17
29.5053	487.80
29.5197	513.75
29.5342	515.31
29.5486	529.79
29.5631	513.16
29.5775	502.03
29.5919	508.47
29.6064	485.26
29.6208	508.82
29.6353	524.60
29.6497	519.62
29.6641	460.41
29.6786	485.64
29.6930	488.36
29.7075	505.60
29.7219	496.06
29.7363	513.08
29.7508	497.69
29.7652	501.83
29.7797	510.61
29.7941	459.92
29.8085	475.59
29.8230	469.06
29.8374	507.18
29.8519	522.44
29.8663	497.99
29.8807	495.83
29.8952	518.46
29.9096	500.57
29.9241	536.04
29.9385	500.72
29.9529	480.97
29.9674	477.99
29.9818	498.69
29.9963	522.59
30.0107	519.72
30.0251	543.38
30.0396	483.06
30.0540	500.28
30.0685	500.44
30.0829	512.82
30.0973	486.80
30.1118	501.24
30.1262	520.37
30.1407	516.93
30.1551	516.64
30.1695	515.65
30.1840	493.84
30.1984	492.48
30.2129	490.41
30.2273	529.52
30.2417	559.33
30.2562	522.06
30.2706	503.77
30.2851	503.58
30.2995	490.24
30.3139	528.12
30.3284	535.20
30.3428	514.72
30.3573	543.56
30.3717	526.67
30.3861	499.81
30.4006	499.10
30.4150	541.83
30.4295	541.91
30.4439	561.50
30.4583	547.70
30.4728	563.15
30.4872	610.53
30.5017	607.44
30.5161	642.49
30.5305	672.23
30.5450	732.85
30.5594	766.75
30.5739	760.77
30.5883	783.53
30.6028	759.54
30.6172	711.40
30.6316	711.85
30.6461	696.21
30.6605	669.15
30.6750	663.10
30.6894	604.15
30.7038	607.16
30.7183	564.82
30.7327	532.69
30.7472	533.77
30.7616	544.96
30.7760	542.86
30.7905	545.24
30.8049	528.62
30.8194	508.06
30.8338	488.86
30.8482	507.57
30.8627	526.35
30.8771	508.48
30.8916	490.32
30.9060	516.03
30.9204	512.52
30.9349	521.76
30.9493	507.50
30.9638	469.53
30.9782	481.30
30.9926	523.62
31.0071	520.41
31.0215	539.87
31.0360	536.32
31.0504	518.50
31.0648	514.57
31.0793	518.08
31.0937	539.00
31.1082	510.37
31.1226	539.14
31.1370	529.97
31.1515	495.24
31.1659	526.82
31.1804	516.06
31.1948	524.29
31.2092	497.69
31.2237	502.74
31.2381	513.36
31.2526	508.79
31.2670	536.22
31.2814	538.21
31.2959	517.63
31.3103	508.73
31.3248	551.04
31.3392	567.86
31.3536	549.93
31.3681	509.37
31.3825	553.89
31.3970	492.69
31.4114	489.86
31.4258	516.38
31.4403	495.00
31.4547	542.67
31.4692	516.54
31.4836	495.06
31.4980	508.62
31.5125	506.16
31.5269	495.04
31.5414	499.06
31.5558	539.97
31.5702	538.49
31.5847	513.56
31.5991	484.80
31.6136	484.85
31.6280	506.96
31.6424	517.05
31.6569	506.14
31.6713	491.16
31.6858	479.89
31.7002	504.18
31.7146	506.27
31.7291	518.69
31.7435	500.83
31.7580	506.82
31.7724	513.87
31.7868	505.10
31.8013	499.89
31.8157	495.95
31.8302	476.53
31.8446	501.02
31.8590	514.38
31.8735	501.07
31.8879	499.26
31.9024	527.44
31.9168	486.11
31.9312	512.06
31.9457	483.77
31.9601	495.33
31.9746	513.88
31.9890	506.36
32.0034	515.38
32.0179	537.28
32.0323	529.85
32.0468	527.90
32.0612	517.27
32.0756	487.18
32.0901	525.40
32.1045	482.87
32.1190	522.40
32.1334	532.05
32.1478	512.86
32.1623	517.65
32.1767	511.61
32.1912	485.13
32.2056	480.33
32.2200	512.84
32.2345	483.17
32.2489	506.21
32.2634	484.15
32.2778	495.29
32.2922	483.15
32.3067	497.43
32.3211	530.11
32.3356	542.69
32.3500	515.41
32.3644	516.71
32.3789	526.74
32.3933	493.10
32.4078	500.39
32.4222	501.91
32.4366	493.41
32.4511	502.08
32.4655	505.31
32.4800	492.69
32.4944	493.20
32.5088	513.40
32.5233	499.05
32.5377	496.99
32.5522	512.38
32.5666	472.73
32.5810	511.02
32.5955	519.04
32.6099	470.84
32.6244	488.24
32.6388	452.45
32.6532	481.74
32.6677	504.99
32.6821	526.48
32.6966	507.96
32.7110	512.03
32.7254	485.10
32.7399	491.97
32.7543	488.34
32.7688	507.68
32.7832	484.68
32.7976	490.83
32.8121	485.30
32.8265	490.42
32.8410	491.50
32.8554	479.72
32.8698	508.37
32.8843	498.44
32.8987	528.18
32.9132	536.01
32.9276	479.69
32.9420	509.19
32.9565	518.80
32.9709	509.17
32.9854	543.27
32.9998	525.66
33.0142	549.74
33.0287	470.37
33.0431	456.60
33.0576	529.30
33.0720	502.11
33.0864	489.91
33.1009	510.46
33.1153	491.95
33.1298	508.11
33.1442	518.33
33.1586	488.50
33.1731	524.71
33.1875	488.16
33.2020	455.79
33.2164	479.12
33.2308	520.86
33.2453	500.18
33.2597	489.33
33.2742	495.71
33.2886	516.37
33.3030	493.09
33.3175	501.60
33.3319	536.94
33.3464	476.99
33.3608	484.41
33.3752	536.34
33.3897	489.83
33.4041	492.89
33.4186	493.59
33.4330	519.80
33.4474	501.91
33.4619	466.20
33.4763	474.39
33.4908	467.98
33.5052	491.99
33.5196	492.70
33.5341	500.66
33.5485	488.69
33.5630	516.81
33.5774	518.59
33.5918	511.81
33.6063	533.14
33.6207	474.38
33.6352	501.22
33.6496	501.14
33.6640	486.42
33.6785	457.87
33.6929	493.01
33.7074	522.32
33.7218	506.86
33.7362	483.29
33.7507	492.83
33.7651	511.30
33.7796	517.58
33.7940	496.07
33.8084	524.11
33.8229	502.56
33.8373	491.65
33.8518	523.25
33.8662	517.76
33.8806	491.75
33.8951	512.93
33.9095	502.67
33.9240	485.78
33.9384	518.63
33.9528	507.23
33.9673	473.34
33.9817	551.70
33.9962	523.25
34.0106	507.43
34.0250	489.02
34.0395	521.17
34.0539	532.35
34.0684	517.37
34.0828	493.42
34.0972	500.10
34.1117	514.83
34.1261	501.70
34.1406	494.72
34.1550	481.56
34.1694	510.00
34.1839	512.49
34.1983	472.64
34.2128	498.99
34.2272	484.91
34.2417	494.53
34.2561	511.47
34.2705	506.62
34.2850	512.25
34.2994	523.48
34.3139	511.55
34.3283	506.92
34.3427	486.30
34.3572	518.87
34.3716	485.46
34.3861	516.88
34.4005	508.78
34.4149	484.89
34.4294	527.32
34.4438	504.80
34.4583	505.50
34.4727	563.45
34.4871	527.57
34.5016	506.82
34.5160	505.49
34.5305	518.58
34.5449	499.53
34.5593	504.44
34.5738	475.35
34.5882	474.53
34.6027	475.96
34.6171	491.82
34.6315	538.28
34.6460	514.91
34.6604	514.73
34.6749	523.23
34.6893	499.76
34.7037	495.42
34.7182	501.75
34.7326	524.26
34.7471	491.83
34.7615	495.98
34.7759	482.70
34.7904	486.45
34.8048	513.45
34.8193	509.07
34.8337	496.92
34.8481	489.61
34.8626	507.71
34.8770	498.36
34.8915	498.50
34.9059	535.78
34.9203	503.80
34.9348	509.95
34.9492	524.39
34.9637	515.87
34.9781	488.08
34.9925	487.45
35.0070	485.18
35.0214	535.43
35.0359	537.84
35.0503	486.24
35.0647	496.11
35.0792	497.62
35.0936	501.23
35.1081	511.93
35.1225	499.54
35.1369	507.93
35.1514	475.33
35.1658	513.68
35.1803	469.59
35.1947	463.53
35.2091	464.19
35.2236	504.49
35.2380	532.47
35.2525	524.27
35.2669	507.67
35.2813	521.59
35.2958	511.57
35.3102	497.92
35.3247	493.95
35.3391	542.09
35.3535	488.62
35.3680	478.78
35.3824	495.88
35.3969	515.11
35.4113	510.92
35.4257	513.00
35.4402	547.28
35.4546	521.57
35.4691	517.82
35.4835	531.81
35.4979	536.20
35.5124	536.93
35.5268	545.97
35.5413	533.46
35.5557	527.66
35.5701	534.42
35.5846	522.03
35.5990	520.51
35.6135	496.52
35.6279	519.99
35.6423	520.28
35.6568	507.64
35.6712	558.95
35.6857	602.88
35.7001	699.87
35.7145	775.17
35.7290	730.66
35.7434	671.85
35.7579	642.09
35.7723	640.03
35.7867	686.95
35.8012	725.65
35.8156	775.35
35.8301	703.56
35.8445	679.88
35.8589	764.53
35.8734	923.75
35.8878	1048.36
35.9023	1072.07
35.9167	1086.92
35.9311	1241.22
35.9456	1524.88
35.9600	1929.07
35.9745	2082.85
35.9889	2217.06
36.0033	2587.10
36.0178	3050.85
36.0322	3197.26
36.0467	2818.04
36.0611	2165.58
36.0755	1969.79
36.0900	2355.03
36.1044	2497.61
36.1189	1959.72
36.1333	1366.56
36.1477	1070.88
36.1622	1018.64
36.1766	981.77
36.1911	857.93
36.2055	757.46
36.2199	751.31
36.2344	738.57
36.2488	615.35
36.2633	595.95
36.2777	527.56
36.2921	579.20
36.3066	527.73
36.3210	539.78
36.3355	539.93
36.3499	563.78
36.3643	553.72
36.3788	547.10
36.3932	531.08
36.4077	552.19
36.4221	521.40
36.4365	521.58
36.4510	521.71
36.4654	547.40
36.4799	570.42
36.4943	558.38
36.5087	531.90
36.5232	545.08
36.5376	536.95
36.5521	537.48
36.5665	539.44
36.5809	512.50
36.5954	523.48
36.6098	525.15
36.6243	505.78
36.6387	553.89
36.6531	507.11
36.6676	509.35
36.6820	534.97
36.6965	498.33
36.7109	549.01
36.7253	554.98
36.7398	509.65
36.7542	529.48
36.7687	508.62
36.7831	542.17
36.7975	538.80
36.8120	547.44
36.8264	549.43
36.8409	586.79
36.8553	606.18
36.8697	600.87
36.8842	583.36
36.8986	574.13
36.9131	569.07
36.9275	585.50
36.9419	588.34
36.9564	595.76
36.9708	582.50
36.9853	549.61
36.9997	587.52
37.0141	522.87
37.0286	514.06
37.0430	558.39
37.0575	537.19
37.0719	499.01
37.0863	549.36
37.1008	529.06
37.1152	516.56
37.1297	532.35
37.1441	500.83
37.1585	505.29
37.1730	490.92
37.1874	500.68
37.2019	524.52
37.2163	481.89
37.2307	477.30
37.2452	506.39
37.2596	472.09
37.2741	498.60
37.2885	519.37
37.3029	503.95
37.3174	519.57
37.3318	513.09
37.3463	517.94
37.3607	526.80
37.3751	500.77
37.3896	476.30
37.4040	505.93
37.4185	509.73
37.4329	523.43
37.4473	493.18
37.4618	492.63
37.4762	497.44
37.4907	499.40
37.5051	479.30
37.5195	488.92
37.5340	507.21
37.5484	469.44
37.5629	506.05
37.5773	473.33
37.5917	486.40
37.6062	496.81
37.6206	509.38
37.6351	502.01
37.6495	494.31
37.6639	487.17
37.6784	510.05
37.6928	500.48
37.7073	508.24
37.7217	499.06
37.7361	498.80
37.7506	491.27
37.7650	508.52
37.7795	501.02
37.7939	496.54
37.8083	486.23
37.8228	517.13
37.8372	496.98
37.8517	499.92
37.8661	528.39
37.8805	513.50
37.8950	511.98
37.9094	538.83
37.9239	463.27
37.9383	497.00
37.9528	516.21
37.9672	485.34
37.9816	501.05
37.9961	528.81
38.0105	495.52
38.0250	516.89
38.0394	524.07
38.0538	522.35
38.0683	569.40
38.0827	509.15
38.0972	554.09
38.1116	498.25
38.1260	481.71
38.1405	482.61
38.1549	501.47
38.1694	515.71
38.1838	508.18
38.1982	516.00
38.2127	532.97
38.2271	501.88
38.2416	490.48
38.2560	482.54
38.2704	517.30
38.2849	518.63
38.2993	505.60
38.3138	520.35
38.3282	527.11
38.3426	513.56
38.3571	510.23
38.3715	482.20
38.3860	502.80
38.4004	516.44
38.4148	518.38
38.4293	586.42
38.4437	575.65
38.4582	613.75
38.4726	655.16
38.4870	664.91
38.5015	692.24
38.5159	759.63
38.5304	788.65
38.5448	793.13
38.5592	777.80
38.5737	751.56
38.5881	726.34
38.6026	700.91
38.6170	683.70
38.6314	665.79
38.6459	639.39
38.6603	652.86
38.6748	631.01
38.6892	608.01
38.7036	560.63
38.7181	572.76
38.7325	532.95
38.7470	532.15
38.7614	524.88
38.7758	504.31
38.7903	504.04
38.8047	482.11
38.8192	524.90
38.8336	476.12
38.8480	508.74
38.8625	523.81
38.8769	504.75
38.8914	460.10
38.9058	478.51
38.9202	495.74
38.9347	485.06
38.9491	497.59
38.9636	508.82
38.9780	520.45
38.9924	516.49
39.0069	469.67
39.0213	493.43
39.0358	477.41
39.0502	467.93
39.0646	488.54
39.0791	488.13
39.0935	526.08
39.1080	502.97
39.1224	498.03
39.1368	491.54
39.1513	473.73
39.1657	471.71
39.1802	518.13
39.1946	488.02
39.2090	462.44
39.2235	491.52
39.2379	531.60
39.2524	492.73
39.2668	495.69
39.2812	517.26
39.2957	496.39
39.3101	510.22
39.3246	497.10
39.3390	528.98
39.3534	536.19
39.3679	522.66
39.3823	532.31
39.3968	512.84
39.4112	477.66
39.4256	508.43
39.4401	484.77
39.4545	493.24
39.4690	521.59
39.4834	521.10
39.4978	533.70
39.5123	482.28
39.5267	464.01
39.5412	505.52
39.5556	505.13
39.5700	479.02
39.5845	461.82
39.5989	492.76
39.6134	470.07
39.6278	465.09
39.6422	482.42
39.6567	470.54
39.6711	474.11
39.6856	514.56
39.7000	504.76
39.7144	486.06
39.7289	477.17
39.7433	486.87
39.7578	484.37
39.7722	510.34
39.7866	477.99
39.8011	492.66
39.8155	502.34
39.8300	500.43
39.8444	464.38
39.8588	497.85
39.8733	503.61
39.8877	492.86
39.9022	491.53
39.9166	471.53
39.9310	497.08
39.9455	515.09
39.9599	489.27
39.9744	461.14
39.9888	489.23
40.0032	458.71
40.0177	492.16
40.0321	515.26
40.0466	460.46
40.0610	487.76
40.0754	469.06
40.0899	490.16
40.1043	495.41
40.1188	467.99
40.1332	522.29
40.1476	471.71
40.1621	456.72
40.1765	486.01
40.1910	461.09
40.2054	459.71
40.2198	471.32
40.2343	461.49
40.2487	480.21
40.2632	487.23
40.2776	492.74
40.2920	483.12
40.3065	487.50
40.3209	486.27
40.3354	530.11
40.3498	501.18
40.3642	506.19
40.3787	524.88
40.3931	495.04
40.4076	480.71
40.4220	488.01
40.4364	488.17
40.4509	503.12
40.4653	485.86
40.4798	475.23
40.4942	524.90
40.5086	535.61
40.5231	471.93
40.5375	473.85
40.5520	476.58
40.5664	468.60
40.5808	459.33
40.5953	491.16
40.6097	516.73
40.6242	499.04
40.6386	485.00
40.6530	485.38
40.6675	498.33
40.6819	461.13
40.6964	529.08
40.7108	521.72
40.7252	519.54
40.7397	528.58
40.7541	523.14
40.7686	515.44
40.7830	475.47
40.7974	512.37
40.8119	502.97
40.8263	462.89
40.8408	479.44
40.8552	492.68
40.8696	539.48
40.8841	512.46
40.8985	520.93
40.9130	498.49
40.9274	494.20
40.9418	500.39
40.9563	484.30
40.9707	473.40
40.9852	461.99
40.9996	517.09
41.0140	534.44
41.0285	517.40
41.0429	463.33
41.0574	512.43
41.0718	502.46
41.0862	518.52
41.1007	469.82
41.1151	458.27
41.1296	477.35
41.1440	504.35
41.1584	474.51
41.1729	442.35
41.1873	487.59
41.2018	469.16
41.2162	480.02
41.2306	504.50
41.2451	516.93
41.2595	480.55
41.2740	509.25
41.2884	499.45
41.3028	539.65
41.3173	486.76
41.3317	501.15
41.3462	527.46
41.3606	527.86
41.3750	485.03
41.3895	496.36
41.4039	510.67
41.4184	525.05
41.4328	493.94
41.4472	469.64
41.4617	465.71
41.4761	484.09
41.4906	511.97
41.5050	493.90
41.5194	500.37
41.5339	503.90
41.5483	547.16
41.5628	517.20
41.5772	495.76
41.5916	518.84
41.6061	494.15
41.6205	507.05
41.6350	497.34
41.6494	457.96
41.6639	456.08
41.6783	475.81
41.6927	471.41
41.7072	518.27
41.7216	497.58
41.7361	498.74
41.7505	460.15
41.7649	512.82
41.7794	504.50
41.7938	510.40
41.8083	507.73
41.8227	507.92
41.8371	504.44
41.8516	528.11
41.8660	560.20
41.8805	516.12
41.8949	534.43
41.9093	524.17
41.9238	519.61
41.9382	541.72
41.9527	532.75
41.9671	560.84
41.9815	545.96
41.9960	548.49
42.0104	593.06
42.0249	556.87
42.0393	577.41
42.0537	581.95
42.0682	569.66
42.0826	551.01
42.0971	565.20
42.1115	556.54
42.1259	583.64
42.1404	604.88
42.1548	635.82
42.1693	632.00
42.1837	705.55
42.1981	751.98
42.2126	853.96
42.2270	928.72
42.2415	1056.46
42.2559	1152.81
42.2703	1308.29
42.2848	1465.85
42.2992	1526.04
42.3137	1621.69
42.3281	1598.63
42.3425	1553.50
42.3570	1462.92
42.3714	1400.06
42.3859	1317.83
42.4003	1326.62
42.4147	1324.38
42.4292	1254.53
42.4436	1196.52
42.4581	1033.20
42.4725	969.07
42.4869	800.74
42.5014	724.94
42.5158	709.79
42.5303	675.06
42.5447	611.52
42.5591	585.34
42.5736	567.31
42.5880	550.30
42.6025	534.79
42.6169	574.16
42.6313	547.68
42.6458	540.95
42.6602	546.32
42.6747	516.93
42.6891	481.34
42.7035	502.79
42.7180	516.89
42.7324	524.75
42.7469	556.67
42.7613	538.89
42.7757	545.23
42.7902	510.68
42.8046	514.28
42.8191	533.42
42.8335	522.77
42.8479	473.96
42.8624	499.72
42.8768	558.84
42.8913	516.18
42.9057	525.36
42.9201	509.64
42.9346	499.22
42.9490	490.38
42.9635	515.49
42.9779	483.92
42.9923	505.80
43.0068	511.37
43.0212	475.56
43.0357	495.29
43.0501	519.66
43.0645	517.24
43.0790	558.65
43.0934	533.02
43.1079	507.38
43.1223	533.34
43.1367	492.29
43.1512	499.21
43.1656	506.04
43.1801	495.40
43.1945	495.07
43.2089	510.14
43.2234	527.66
43.2378	501.38
43.2523	506.29
43.2667	523.64
43.2811	538.39
43.2956	531.53
43.3100	558.30
43.3245	509.86
43.3389	521.52
43.3533	532.01
43.3678	526.38
43.3822	518.58
43.3967	513.64
43.4111	496.89
43.4255	527.74
43.4400	514.30
43.4544	495.45
43.4689	545.84
43.4833	491.12
43.4977	515.88
43.5122	523.43
43.5266	558.36
43.5411	519.64
43.5555	518.94
43.5699	515.93
43.5844	514.25
43.5988	514.18
43.6133	559.75
43.6277	543.16
43.6421	540.46
43.6566	544.09
43.6710	530.43
43.6855	596.10
43.6999	611.46
43.7143	645.79
43.7288	603.40
43.7432	675.51
43.7577	672.03
43.7721	671.59
43.7865	634.18
43.8010	596.90
43.8154	571.02
43.8299	612.54
43.8443	603.17
43.8587	593.14
43.8732	599.84
43.8876	606.80
43.9021	593.85
43.9165	592.52
43.9309	556.19
43.9454	538.95
43.9598	533.39
43.9743	509.76
43.9887	527.86
44.0031	494.33
44.0176	506.09
44.0320	506.69
44.0465	478.64
44.0609	526.39
44.0753	511.79
44.0898	509.52
44.1042	520.12
44.1187	548.77
44.1331	524.75
44.1475	494.49
44.1620	498.69
44.1764	504.27
44.1909	522.38
44.2053	498.00
44.2197	498.16
44.2342	500.95
44.2486	533.55
44.2631	512.46
44.2775	513.50
44.2919	523.02
44.3064	533.13
44.3208	552.10
44.3353	551.21
44.3497	540.39
44.3641	547.06
44.3786	535.27
44.3930	528.52
44.4075	546.86
44.4219	588.24
44.4363	574.57
44.4508	564.34
44.4652	549.84
44.4797	594.65
44.4941	574.65
44.5085	537.42
44.5230	585.53
44.5374	556.71
44.5519	587.74
44.5663	580.51
44.5807	567.59
44.5952	570.04
44.6096	582.78
44.6241	568.72
44.6385	583.02
44.6529	557.59
44.6674	558.14
44.6818	573.20
44.6963	635.60
44.7107	665.13
44.7251	716.07
44.7396	719.26
44.7540	779.39
44.7685	817.54
44.7829	884.51
44.7973	876.89
44.8118	835.93
44.8262	796.45
44.8407	769.76
44.8551	771.70
44.8695	727.48
44.8840	661.59
44.8984	722.59
44.9129	722.66
44.9273	689.48
44.9417	655.22
44.9562	595.67
44.9706	604.79
44.9851	537.84
44.9995	595.90
45.0139	572.11
45.0284	545.04
45.0428	571.80
45.0573	543.91
45.0717	516.67
45.0861	546.17
45.1006	526.39
45.1150	538.41
45.1295	508.04
45.1439	474.06
45.1583	481.61
45.1728	506.11
45.1872	538.11
45.2017	523.64
45.2161	511.19
45.2305	520.56
45.2450	525.61
45.2594	496.99
45.2739	495.83
45.2883	499.49
45.3028	544.91
45.3172	533.32
45.3316	547.84
45.3461	512.26
45.3605	482.90
45.3750	488.60
45.3894	517.76
45.4038	517.67
45.4183	523.26
45.4327	498.66
45.4472	506.95
45.4616	492.57
45.4760	529.77
45.4905	505.64
45.5049	498.39
45.5194	487.43
45.5338	518.92
45.5482	484.26
45.5627	512.92
45.5771	521.53
45.5916	504.22
45.6060	531.63
45.6204	510.78
45.6349	541.46
45.6493	494.23
45.6638	470.50
45.6782	480.25
45.6926	515.23
45.7071	508.40
45.7215	501.82
45.7360	496.65
45.7504	523.11
45.7648	492.19
45.7793	533.38
45.7937	518.40
45.8082	518.68
45.8226	480.59
45.8370	510.58
45.8515	532.07
45.8659	497.14
45.8804	501.61
45.8948	517.54
45.9092	512.89
45.9237	500.50
45.9381	520.03
45.9526	502.85
45.9670	526.19
45.9814	544.68
45.9959	540.88
46.0103	514.73
46.0248	520.67
46.0392	491.84
46.0536	509.60
46.0681	498.14
46.0825	491.20
46.0970	494.13
46.1114	511.40
46.1258	515.87
46.1403	505.35
46.1547	462.35
46.1692	495.08
46.1836	494.33
46.1980	510.12
46.2125	508.36
46.2269	475.87
46.2414	497.50
46.2558	475.96
46.2702	484.91
46.2847	477.65
46.2991	469.57
46.3136	493.27
46.3280	480.48
46.3424	472.28
46.3569	485.65
46.3713	513.67
46.3858	474.38
46.4002	503.12
46.4146	496.69
46.4291	531.71
46.4435	499.93
46.4580	495.51
46.4724	521.30
46.4868	517.62
46.5013	516.77
46.5157	504.59
46.5302	461.40
46.5446	509.01
46.5590	517.23
46.5735	504.59
46.5879	481.07
46.6024	461.50
46.6168	464.87
46.6312	470.38
46.6457	484.06
46.6601	483.54
46.6746	466.66
46.6890	458.91
46.7034	471.21
46.7179	479.55
46.7323	483.35
46.7468	478.15
46.7612	476.19
46.7756	494.09
46.7901	493.18
46.8045	495.82
46.8190	493.39
46.8334	525.96
46.8478	520.80
46.8623	524.83
46.8767	517.95
46.8912	492.86
46.9056	505.74
46.9200	503.43
46.9345	520.83
46.9489	496.22
46.9634	483.76
46.9778	516.48
46.9922	537.89
47.0067	500.51
47.0211	502.25
47.0356	498.19
47.0500	491.54
47.0644	531.47
47.0789	515.19
47.0933	513.50
47.1078	489.08
47.1222	508.55
47.1366	542.73
47.1511	502.93
47.1655	504.43
47.1800	488.95
47.1944	498.89
47.2088	518.20
47.2233	529.68
47.2377	500.99
47.2522	484.35
47.2666	517.29
47.2810	544.06
47.2955	518.57
47.3099	511.05
47.3244	500.18
47.3388	538.36
47.3532	523.00
47.3677	511.96
47.3821	499.46
47.3966	473.27
47.4110	493.82
47.4254	536.53
47.4399	496.89
47.4543	520.80
47.4688	494.13
47.4832	488.88
47.4976	511.26
47.5121	494.12
47.5265	517.39
47.5410	504.74
47.5554	500.72
47.5698	529.50
47.5843	501.19
47.5987	528.34
47.6132	491.05
47.6276	505.68
47.6420	512.10
47.6565	493.96
47.6709	460.33
47.6854	488.31
47.6998	486.24
47.7142	517.74
47.7287	490.29
47.7431	482.72
47.7576	505.69
47.7720	451.37
47.7864	513.86
47.8009	481.24
47.8153	509.60
47.8298	509.21
47.8442	510.65
47.8586	484.65
47.8731	507.31
47.8875	485.94
47.9020	495.55
47.9164	521.88
47.9308	514.29
47.9453	510.44
47.9597	514.28
47.9742	488.69
47.9886	506.23
48.0030	505.01
48.0175	516.41
48.0319	486.23
48.0464	485.21
48.0608	534.49
48.0752	504.96
48.0897	519.81
48.1041	481.68
48.1186	517.18
48.1330	528.72
48.1474	475.60
48.1619	522.91
48.1763	501.82
48.1908	494.99
48.2052	513.86
48.2196	481.72
48.2341	484.30
48.2485	526.44
48.2630	509.09
48.2774	512.89
48.2918	493.05
48.3063	525.64
48.3207	478.99
48.3352	513.49
48.3496	518.99
48.3640	502.38
48.3785	532.44
48.3929	481.49
48.4074	507.77
48.4218	523.40
48.4362	517.37
48.4507	489.13
48.4651	533.97
48.4796	531.31
48.4940	531.89
48.5084	504.85
48.5229	516.19
48.5373	518.10
48.5518	516.80
48.5662	506.24
48.5806	486.53
48.5951	493.60
48.6095	508.70
48.6240	516.86
48.6384	526.52
48.6528	511.49
48.6673	522.68
48.6817	496.98
48.6962	507.44
48.7106	486.93
48.7250	505.97
48.7395	527.13
48.7539	535.87
48.7684	541.08
48.7828	543.16
48.7972	522.86
48.8117	528.28
48.8261	519.63
48.8406	545.24
48.8550	513.62
48.8694	547.73
48.8839	523.23
48.8983	526.55
48.9128	555.39
48.9272	547.11
48.9416	585.60
48.9561	550.26
48.9705	518.33
48.9850	564.35
48.9994	538.26
49.0139	620.04
49.0283	584.22
49.0427	591.80
49.0572	661.26
49.0716	609.01
49.0861	619.91
49.1005	720.79
49.1149	740.35
49.1294	723.86
49.1438	766.52
49.1583	810.52
49.1727	855.58
49.1871	915.29
49.2016	948.48
49.2160	1039.49
49.2305	1143.19
49.2449	1271.19
49.2593	1295.82
49.2738	1378.64
49.2882	1509.62
49.3027	1645.26
49.3171	1659.32
49.3315	1759.48
49.3460	1766.40
49.3604	1852.33
49.3749	1790.37
49.3893	1755.69
49.4037	1713.54
49.4182	1794.30
49.4326	1760.59
49.4471	1674.28
49.4615	1648.66
49.4759	1566.22
49.4904	1515.83
49.5048	1424.81
49.5193	1333.19
49.5337	1257.86
49.5481	1146.85
49.5626	1139.34
49.5770	1053.15
49.5915	998.22
49.6059	898.78
49.6203	838.20
49.6348	837.54
49.6492	772.76
49.6637	724.11
49.6781	735.23
49.6925	662.55
49.7070	664.05
49.7214	660.07
49.7359	638.70
49.7503	600.19
49.7647	588.87
49.7792	583.68
49.7936	633.59
49.8081	610.58
49.8225	582.49
49.8369	543.56
49.8514	528.21
49.8658	582.85
49.8803	573.04
49.8947	567.68
49.9091	569.06
49.9236	514.21
49.9380	527.26
49.9525	559.44
49.9669	550.83
49.9813	488.45
49.9958	495.77
50.0102	536.76
50.0247	552.89
50.0391	521.87
50.0535	513.64
50.0680	536.58
50.0824	536.82
50.0969	537.32
50.1113	532.32
50.1257	529.82
50.1402	498.25
50.1546	507.31
50.1691	498.88
50.1835	509.05
50.1979	512.10
50.2124	502.91
50.2268	516.77
50.2413	510.64
50.2557	508.35
50.2701	507.50
50.2846	522.43
50.2990	475.34
50.3135	518.27
50.3279	523.58
50.3423	527.35
50.3568	506.31
50.3712	507.22
50.3857	519.48
50.4001	503.55
50.4145	495.58
50.4290	523.87
50.4434	527.12
50.4579	493.72
50.4723	508.19
50.4867	520.27
50.5012	503.19
50.5156	515.12
50.5301	522.14
50.5445	510.81
50.5589	507.28
50.5734	537.51
50.5878	490.29
50.6023	495.64
50.6167	501.64
50.6311	515.28
50.6456	521.89
50.6600	493.57
50.6745	490.08
50.6889	520.73
50.7033	546.56
50.7178	539.37
50.7322	486.56
50.7467	491.22
50.7611	485.90
50.7755	524.67
50.7900	564.42
50.8044	509.18
50.8189	490.34
50.8333	502.10
50.8477	522.37
50.8622	531.02
50.8766	547.11
50.8911	528.65
50.9055	509.91
50.9199	492.69
50.9344	501.76
50.9488	508.83
50.9633	504.07
50.9777	488.49
50.9921	495.46
51.0066	522.21
51.0210	511.71
51.0355	467.99
51.0499	490.15
51.0643	533.30
51.0788	549.06
51.0932	531.69
51.1077	460.53
51.1221	496.33
51.1365	523.38
51.1510	522.27
51.1654	487.50
51.1799	486.23
51.1943	523.83
51.2087	499.39
51.2232	501.30
51.2376	496.48
51.2521	512.45
51.2665	465.05
51.2809	510.05
51.2954	487.90
51.3098	498.55
51.3243	469.02
51.3387	492.37
51.3531	501.44
51.3676	516.40
51.3820	531.19
51.3965	486.95
51.4109	502.50
51.4253	535.95
51.4398	508.56
51.4542	496.73
51.4687	501.40
51.4831	509.92
51.4975	505.71
51.5120	488.79
51.5264	493.64
51.5409	520.95
51.5553	499.87
51.5697	477.76
51.5842	530.41
51.5986	503.04
51.6131	496.10
51.6275	483.80
51.6419	502.97
51.6564	519.10
51.6708	512.13
51.6853	481.37
51.6997	493.48
51.7141	508.13
51.7286	486.45
51.7430	480.62
51.7575	504.30
51.7719	534.45
51.7863	522.44
51.8008	503.57
51.8152	507.23
51.8297	515.24
51.8441	511.81
51.8585	518.25
51.8730	493.72
51.8874	514.86
51.9019	510.25
51.9163	493.52
51.9307	495.37
51.9452	498.88
51.9596	469.48
51.9741	445.13
51.9885	503.24
52.0029	512.75
52.0174	503.54
52.0318	546.15
52.0463	521.68
52.0607	522.05
52.0751	514.22
52.0896	518.33
52.1040	500.55
52.1185	519.62
52.1329	495.65
52.1473	495.77
52.1618	487.66
52.1762	521.08
52.1907	522.90
52.2051	535.51
52.2195	503.87
52.2340	502.32
52.2484	536.45
52.2629	447.31
52.2773	505.40
52.2917	488.42
52.3062	509.23
52.3206	499.83
52.3351	541.35
52.3495	499.01
52.3639	500.19
52.3784	492.57
52.3928	509.14
52.4073	522.91
52.4217	515.88
52.4361	531.32
52.4506	471.34
52.4650	493.42
52.4795	515.27
52.4939	497.68
52.5083	472.18
52.5228	509.29
52.5372	483.87
52.5517	484.68
52.5661	518.70
52.5805	509.20
52.5950	523.29
52.6094	514.00
52.6239	519.53
52.6383	498.58
52.6527	525.30
52.6672	511.90
52.6816	505.57
52.6961	511.26
52.7105	551.33
52.7250	543.84
52.7394	514.56
52.7538	487.39
52.7683	469.42
52.7827	484.30
52.7972	491.01
52.8116	528.66
52.8260	535.99
52.8405	501.53
52.8549	524.61
52.8694	529.74
52.8838	527.70
52.8982	546.43
52.9127	541.47
52.9271	520.51
52.9416	492.28
52.9560	520.48
52.9704	474.93
52.9849	536.18
52.9993	521.21
53.0138	515.07
53.0282	538.78
53.0426	455.70
53.0571	491.17
53.0715	533.64
53.0860	561.64
53.1004	498.68
53.1148	486.03
53.1293	498.38
53.1437	495.84
53.1582	514.57
53.1726	516.99
53.1870	496.34
53.2015	491.01
53.2159	515.84
53.2304	494.38
53.2448	480.84
53.2592	529.92
53.2737	522.84
53.2881	522.05
53.3026	498.93
53.3170	504.98
53.3314	540.08
53.3459	530.64
53.3603	534.19
53.3748	491.19
53.3892	476.89
53.4036	533.39
53.4181	533.92
53.4325	563.70
53.4470	509.42
53.4614	507.52
53.4758	530.18
53.4903	522.82
53.5047	487.83
53.5192	527.18
53.5336	517.47
53.5480	522.69
53.5625	502.23
53.5769	511.49
53.5914	492.87
53.6058	518.29
53.6202	511.54
53.6347	508.34
53.6491	491.70
53.6636	491.62
53.6780	517.27
53.6924	475.19
53.7069	499.07
53.7213	513.87
53.7358	505.45
53.7502	510.25
53.7646	494.26
53.7791	506.83
53.7935	506.59
53.8080	501.69
53.8224	515.13
53.8368	544.22
53.8513	494.43
53.8657	516.26
53.8802	502.49
53.8946	530.23
53.9090	553.25
53.9235	504.00
53.9379	503.35
53.9524	506.06
53.9668	502.50
53.9812	511.59
53.9957	495.68
54.0101	514.23
54.0246	549.34
54.0390	539.84
54.0534	511.63
54.0679	504.14
54.0823	549.79
54.0968	533.46
54.1112	514.64
54.1256	514.37
54.1401	526.00
54.1545	527.85
54.1690	536.48
54.1834	542.50
54.1978	564.88
54.2123	552.35
54.2267	588.46
54.2412	605.24
54.2556	619.88
54.2700	602.49
54.2845	660.00
54.2989	662.02
54.3134	610.91
54.3278	629.53
54.3422	618.43
54.3567	592.03
54.3711	599.60
54.3856	590.46
54.4000	581.82
54.4144	600.10
54.4289	617.78
54.4433	587.67
54.4578	563.04
54.4722	554.63
54.4866	562.85
54.5011	548.31
54.5155	564.68
54.5300	564.27
54.5444	557.54
54.5588	591.01
54.5733	540.05
54.5877	525.95
54.6022	510.45
54.6166	507.52
54.6310	501.36
54.6455	502.97
54.6599	513.75
54.6744	505.32
54.6888	499.94
54.7032	542.92
54.7177	515.03
54.7321	496.88
54.7466	533.70
54.7610	538.22
54.7754	514.45
54.7899	491.08
54.8043	518.16
54.8188	517.68
54.8332	531.24
54.8476	509.68
54.8621	524.98
54.8765	492.48
54.8910	516.86
54.9054	562.24
54.9198	490.89
54.9343	514.52
54.9487	506.31
54.9632	508.50
54.9776	509.15
54.9920	505.33
55.0065	522.59
55.0209	565.00
55.0354	528.98
55.0498	492.85
55.0642	505.26
55.0787	500.40
55.0931	522.37
55.1076	520.75
55.1220	504.16
55.1364	519.68
55.1509	479.04
55.1653	505.44
55.1798	472.40
55.1942	496.82
55.2086	491.37
55.2231	508.23
55.2375	495.89
55.2520	537.87
55.2664	543.39
55.2808	512.74
55.2953	489.22
55.3097	499.26
55.3242	504.75
55.3386	546.16
55.3530	504.75
55.3675	532.90
55.3819	501.99
55.3964	487.08
55.4108	462.16
55.4252	528.42
55.4397	521.36
55.4541	485.39
55.4686	495.19
55.4830	532.35
55.4974	501.50
55.5119	522.11
55.5263	503.39
55.5408	500.48
55.5552	519.56
55.5696	536.10
55.5841	536.83
55.5985	505.89
55.6130	493.42
55.6274	507.98
55.6418	500.48
55.6563	519.38
55.6707	506.13
55.6852	497.23
55.6996	546.72
55.7140	521.43
55.7285	557.70
55.7429	542.00
55.7574	537.23
55.7718	504.06
55.7862	538.21
55.8007	493.39
55.8151	506.15
55.8296	510.48
55.8440	507.79
55.8584	519.70
55.8729	490.38
55.8873	496.80
55.9018	517.69
55.9162	536.61
55.9306	529.88
55.9451	522.34
55.9595	522.01
55.9740	512.24
55.9884	535.84
56.0028	488.75
56.0173	537.84
56.0317	518.83
56.0462	483.15
56.0606	549.83
56.0750	517.38
56.0895	565.49
56.1039	482.94
56.1184	518.85
56.1328	544.41
56.1472	501.26
56.1617	516.67
56.1761	534.85
56.1906	515.33
56.2050	511.46
56.2194	493.62
56.2339	534.78
56.2483	553.29
56.2628	493.87
56.2772	537.93
56.2916	516.94
56.3061	534.17
56.3205	499.73
56.3350	501.99
56.3494	523.89
56.3639	518.78
56.3783	524.53
56.3927	503.25
56.4072	519.10
56.4216	504.77
56.4361	554.09
56.4505	535.78
56.4649	534.35
56.4794	552.78
56.4938	543.74
56.5083	523.65
56.5227	495.66
56.5371	501.28
56.5516	504.87
56.5660	525.23
56.5805	507.16
56.5949	547.37
56.6093	509.73
56.6238	507.36
56.6382	510.31
56.6527	568.78
56.6671	555.11
56.6815	527.59
56.6960	518.81
56.7104	507.36
56.7249	521.16
56.7393	537.52
56.7537	502.08
56.7682	534.69
56.7826	499.47
56.7971	521.06
56.8115	561.12
56.8259	557.53
56.8404	500.59
56.8548	535.02
56.8693	580.33
56.8837	516.30
56.8981	526.75
56.9126	556.03
56.9270	498.10
56.9415	539.02
56.9559	523.25
56.9703	493.14
56.9848	505.95
56.9992	509.95
57.0137	509.10
57.0281	523.50
57.0425	493.73
57.0570	540.33
57.0714	534.45
57.0859	507.90
57.1003	481.01
57.1147	519.62
57.1292	524.40
57.1436	499.82
57.1581	535.09
57.1725	502.76
57.1869	531.53
57.2014	515.50
57.2158	495.11
57.2303	496.38
57.2447	514.78
57.2591	491.03
57.2736	528.48
57.2880	544.96
57.3025	463.50
57.3169	504.78
57.3313	548.98
57.3458	547.70
57.3602	510.14
57.3747	500.36
57.3891	473.83
57.4035	502.78
57.4180	515.45
57.4324	509.73
57.4469	485.24
57.4613	544.47
57.4757	539.62
57.4902	557.50
57.5046	510.19
57.5191	495.81
57.5335	512.07
57.5479	509.28
57.5624	533.85
57.5768	532.69
57.5913	527.82
57.6057	536.64
57.6201	521.76
57.6346	547.29
57.6490	529.76
57.6635	528.78
57.6779	538.84
57.6923	514.69
57.7068	573.27
57.7212	573.64
57.7357	549.02
57.7501	555.20
57.7645	569.92
57.7790	609.81
57.7934	613.19
57.8079	641.86
57.8223	654.72
57.8367	654.65
57.8512	725.50
57.8656	778.64
57.8801	768.99
57.8945	754.41
57.9089	792.00
57.9234	700.46
57.9378	688.01
57.9523	647.73
57.9667	659.90
57.9811	663.89
57.9956	664.70
58.0100	667.26
58.0245	720.46
58.0389	683.77
58.0533	671.10
58.0678	648.02
58.0822	629.44
58.0967	602.53
58.1111	574.11
58.1255	562.97
58.1400	532.79
58.1544	506.41
58.1689	566.97
58.1833	566.67
58.1977	550.16
58.2122	575.33
58.2266	581.67
58.2411	565.43
58.2555	577.21
58.2699	573.57
58.2844	578.94
58.2988	546.83
58.3133	525.78
58.3277	522.39
58.3421	563.61
58.3566	528.91
58.3710	494.89
58.3855	513.82
58.3999	517.95
58.4143	557.33
58.4288	586.13
58.4432	544.16
58.4577	538.65
58.4721	555.28
58.4865	529.91
58.5010	536.28
58.5154	526.97
58.5299	529.49
58.5443	542.82
58.5587	558.81
58.5732	549.22
58.5876	513.21
58.6021	513.56
58.6165	529.98
58.6309	518.85
58.6454	506.11
58.6598	518.41
58.6743	520.57
58.6887	521.08
58.7031	535.88
58.7176	547.75
58.7320	528.62
58.7465	520.78
58.7609	498.17
58.7753	494.05
58.7898	541.79
58.8042	546.47
58.8187	532.36
58.8331	570.57
58.8475	519.91
58.8620	558.49
58.8764	544.38
58.8909	498.11
58.9053	531.76
58.9197	531.50
58.9342	518.30
58.9486	512.45
58.9631	503.29
58.9775	519.90
58.9919	486.37
59.0064	511.69
59.0208	516.59
59.0353	523.19
59.0497	524.53
59.0641	535.24
59.0786	539.66
59.0930	537.35
59.1075	543.50
59.1219	540.45
59.1363	557.06
59.1508	507.09
59.1652	552.50
59.1797	555.11
59.1941	521.92
59.2085	523.53
59.2230	514.07
59.2374	545.51
59.2519	571.47
59.2663	570.32
59.2807	571.48
59.2952	517.66
59.3096	547.90
59.3241	535.22
59.3385	568.23
59.3529	519.41
59.3674	525.78
59.3818	537.04
59.3963	542.28
59.4107	562.27
59.4251	569.09
59.4396	519.17
59.4540	526.90
59.4685	543.55
59.4829	529.79
59.4973	541.06
59.5118	543.92
59.5262	532.69
59.5407	562.15
59.5551	577.72
59.5695	563.32
59.5840	520.81
59.5984	503.94
59.6129	542.61
59.6273	542.44
59.6417	546.49
59.6562	511.43
59.6706	522.88
59.6851	500.18
59.6995	531.89
59.7139	547.17
59.7284	539.71
59.7428	531.68
59.7573	515.25
59.7717	526.66
59.7861	537.79
59.8006	515.25
59.8150	554.31
59.8295	561.17
59.8439	567.00
59.8583	515.49
59.8728	533.97
59.8872	568.74
59.9017	583.56
59.9161	509.49
59.9305	549.89
59.9450	567.35
59.9594	548.55
59.9739	562.88
59.9883	520.03
60.0027	515.87
60.0172	507.21
60.0316	510.16
60.0461	509.09
60.0605	548.56
60.0750	537.81
60.0894	549.89
60.1038	540.36
60.1183	506.58
60.1327	551.86
60.1472	516.32
60.1616	524.72
60.1760	542.03
60.1905	510.10
60.2049	501.74
60.2194	518.98
60.2338	506.85
60.2482	510.28
60.2627	517.69
60.2771	517.03
60.2916	562.48
60.3060	521.07
60.3204	517.81
60.3349	578.09
60.3493	547.46
60.3638	516.83
60.3782	495.07
60.3926	554.20
60.4071	514.53
60.4215	533.83
60.4360	550.27
60.4504	504.14
60.4648	517.12
60.4793	545.20
60.4937	504.97
60.5082	498.73
60.5226	521.61
60.5370	551.82
60.5515	542.76
60.5659	543.27
60.5804	565.14
60.5948	521.49
60.6092	538.69
60.6237	536.91
60.6381	535.93
60.6526	560.63
60.6670	525.86
60.6814	529.13
60.6959	534.01
60.7103	558.55
60.7248	516.06
60.7392	564.28
60.7536	544.47
60.7681	532.41
60.7825	544.82
60.7970	527.52
60.8114	516.64
60.8258	531.69
60.8403	571.05
60.8547	588.15
60.8692	555.25
60.8836	549.75
60.8980	525.97
60.9125	556.28
60.9269	566.70
60.9414	598.02
60.9558	545.99
60.9702	536.32
60.9847	524.80
60.9991	555.68
61.0136	514.30
61.0280	534.85
61.0424	558.51
61.0569	533.57
61.0713	558.86
61.0858	554.82
61.1002	509.65
61.1146	546.07
61.1291	540.93
61.1435	504.49
61.1580	525.05
61.1724	547.22
61.1868	556.17
61.2013	502.99
61.2157	535.34
61.2302	534.40
61.2446	567.00
61.2590	528.85
61.2735	557.89
61.2879	546.52
61.3024	521.65
61.3168	522.51
61.3312	523.06
61.3457	530.31
61.3601	507.15
61.3746	476.58
61.3890	507.12
61.4034	506.93
61.4179	542.92
61.4323	571.87
61.4468	501.42
61.4612	562.86
61.4756	542.61
61.4901	552.05
61.5045	545.50
61.5190	540.92
61.5334	550.56
61.5478	557.34
61.5623	520.39
61.5767	547.27
61.5912	533.33
61.6056	554.57
61.6200	547.16
61.6345	559.59
61.6489	524.28
61.6634	561.22
61.6778	548.37
61.6922	527.31
61.7067	551.15
61.7211	573.61
61.7356	530.64
61.7500	554.04
61.7644	498.11
61.7789	513.96
61.7933	562.78
61.8078	572.33
61.8222	572.20
61.8366	548.88
61.8511	542.49
61.8655	560.93
61.8800	554.19
61.8944	536.31
61.9088	539.27
61.9233	525.40
61.9377	552.04
61.9522	549.20
61.9666	568.02
61.9810	576.17
61.9955	518.91
62.0099	525.28
62.0244	550.45
62.0388	522.17
62.0532	536.13
62.0677	538.19
62.0821	572.40
62.0966	517.83
62.1110	532.07
62.1254	539.16
62.1399	548.55
62.1543	520.12
62.1688	539.71
62.1832	552.03
62.1976	557.60
62.2121	529.08
62.2265	536.77
62.2410	580.51
62.2554	565.60
62.2698	565.51
62.2843	551.39
62.2987	536.28
62.3132	560.78
62.3276	548.01
62.3420	572.66
62.3565	577.79
62.3709	525.05
62.3854	550.70
62.3998	548.74
62.4142	527.57
62.4287	563.52
62.4431	547.33
62.4576	530.34
62.4720	560.05
62.4864	568.03
62.5009	556.21
62.5153	545.43
62.5298	578.35
62.5442	570.98
62.5586	537.19
62.5731	538.66
62.5875	542.34
62.6020	572.71
62.6164	576.48
62.6308	585.36
62.6453	557.62
62.6597	514.35
62.6742	538.03
62.6886	548.55
62.7030	558.39
62.7175	568.73
62.7319	590.95
62.7464	552.19
62.7608	546.26
62.7752	543.62
62.7897	553.27
62.8041	545.05
62.8186	555.45
62.8330	576.11
62.8474	561.08
62.8619	590.05
62.8763	619.19
62.8908	594.77
62.9052	574.11
62.9196	584.60
62.9341	578.17
62.9485	563.94
62.9630	567.83
62.9774	566.26
62.9918	573.91
63.0063	558.38
63.0207	553.17
63.0352	584.27
63.0496	599.90
63.0640	583.93
63.0785	572.14
63.0929	573.56
63.1074	577.66
63.1218	556.72
63.1362	553.11
63.1507	558.55
63.1651	574.87
63.1796	583.97
63.1940	549.83
63.2084	582.05
63.2229	572.06
63.2373	599.17
63.2518	571.17
63.2662	575.84
63.2806	585.71
63.2951	601.99
63.3095	588.50
63.3240	591.26
63.3384	605.50
63.3528	620.46
63.3673	588.60
63.3817	591.30
63.3962	604.12
63.4106	612.53
63.4250	626.63
63.4395	626.47
63.4539	636.89
63.4684	712.59
63.4828	724.34
63.4972	732.44
63.5117	783.30
63.5261	792.66
63.5406	884.05
63.5550	910.37
63.5694	950.77
63.5839	967.88
63.5983	945.37
63.6128	857.57
63.6272	844.17
63.6416	798.31
63.6561	758.07
63.6705	723.59
63.6850	777.53
63.6994	820.03
63.7138	822.10
63.7283	796.08
63.7427	810.34
63.7572	754.80
63.7716	720.21
63.7861	766.64
63.8005	749.25
63.8149	709.95
63.8294	709.54
63.8438	662.93
63.8583	653.19
63.8727	626.61
63.8871	617.84
63.9016	660.78
63.9160	600.68
63.9305	629.23
63.9449	622.65
63.9593	568.58
63.9738	620.16
63.9882	619.08
64.0027	607.28
64.0171	620.62
64.0315	640.38
64.0460	614.52
64.0604	612.28
64.0749	644.32
64.0893	611.89
64.1037	609.61
64.1182	616.57
64.1326	601.17
64.1471	568.94
64.1615	596.56
64.1759	620.90
64.1904	601.29
64.2048	613.88
64.2193	606.78
64.2337	581.40
64.2481	579.91
64.2626	592.62
64.2770	610.01
64.2915	593.88
64.3059	617.92
64.3203	607.09
64.3348	629.44
64.3492	628.11
64.3637	598.89
64.3781	572.76
64.3925	591.14
64.4070	545.54
64.4214	580.89
64.4359	634.52
64.4503	629.05
64.4647	617.58
64.4792	596.61
64.4936	584.82
64.5081	612.42
64.5225	601.86
64.5369	649.51
64.5514	612.35
64.5658	621.50
64.5803	636.30
64.5947	613.89
64.6091	576.03
64.6236	591.73
64.6380	641.12
64.6525	685.90
64.6669	642.57
64.6813	682.35
64.6958	686.31
64.7102	690.90
64.7247	668.87
64.7391	675.07
64.7535	692.76
64.7680	645.78
64.7824	724.94
64.7969	746.90
64.8113	748.41
64.8257	762.83
64.8402	823.05
64.8546	826.28
64.8691	827.82
64.8835	789.57
64.8979	826.07
64.9124	881.34
64.9268	858.02
64.9413	939.42
64.9557	932.81
64.9701	922.43
64.9846	1046.62
64.9990	1101.20
65.0135	1169.10
65.0279	1344.88
65.0423	1631.77
65.0568	1937.53
65.0712	2515.33
65.0857	3253.13
65.1001	4276.27
65.1145	5816.42
65.1290	7628.47
65.1434	9190.79
65.1579	10695.19
65.1723	11466.44
65.1867	11134.89
65.2012	10006.50
65.2156	8282.53
65.2301	6664.16
65.2445	5284.92
65.2589	4361.15
65.2734	4081.44
65.2878	4255.66
65.3023	4710.53
65.3167	5493.60
65.3311	6406.68
65.3456	6882.73
65.3600	6802.77
65.3745	6434.49
65.3889	5505.89
65.4033	4327.34
65.4178	3469.20
65.4322	2716.11
65.4467	2042.60
65.4611	1675.94
65.4755	1453.49
65.4900	1256.32
65.5044	1150.41
65.5189	1000.95
65.5333	962.12
65.5477	918.23
65.5622	890.74
65.5766	840.32
65.5911	810.36
65.6055	796.24
65.6199	732.00
65.6344	757.71
65.6488	763.91
65.6633	710.45
65.6777	712.39
65.6921	700.26
65.7066	724.72
65.7210	687.28
65.7355	653.76
65.7499	678.03
65.7643	659.52
65.7788	662.92
65.7932	592.75
65.8077	650.36
65.8221	696.31
65.8365	675.80
65.8510	645.98
65.8654	667.08
65.8799	644.31
65.8943	619.54
65.9087	640.09
65.9232	639.92
65.9376	655.67
65.9521	610.88
65.9665	570.65
65.9809	648.72
65.9954	643.37
66.0098	612.58
66.0243	624.35
66.0387	615.26
66.0531	598.22
66.0676	643.71
66.0820	633.39
66.0965	646.77
66.1109	597.24
66.1253	607.69
66.1398	584.37
66.1542	579.62
66.1687	598.10
66.1831	605.70
66.1975	581.90
66.2120	624.01
66.2264	606.14
66.2409	607.96
66.2553	599.05
66.2697	621.93
66.2842	609.44
66.2986	565.33
66.3131	634.11
66.3275	590.63
66.3419	578.14
66.3564	604.97
66.3708	610.03
66.3853	634.34
66.3997	618.07
66.4141	606.76
66.4286	636.06
66.4430	597.09
66.4575	609.00
66.4719	582.31
66.4863	578.22
66.5008	580.96
66.5152	582.64
66.5297	605.46
66.5441	599.55
66.5585	631.40
66.5730	602.09
66.5874	611.24
66.6019	585.29
66.6163	537.58
66.6307	587.55
66.6452	590.19
66.6596	589.84
66.6741	599.65
66.6885	576.63
66.7029	603.99
66.7174	594.08
66.7318	574.15
66.7463	540.47
66.7607	534.59
66.7751	587.78
66.7896	574.62
66.8040	587.82
66.8185	582.14
66.8329	588.70
66.8473	570.55
66.8618	593.48
66.8762	570.56
66.8907	556.41
66.9051	555.51
66.9195	554.28
66.9340	576.04
66.9484	583.29
66.9629	553.09
66.9773	569.16
66.9917	555.53
67.0062	585.29
67.0206	606.57
67.0351	574.17
67.0495	576.88
67.0639	559.26
67.0784	575.03
67.0928	606.37
67.1073	582.25
67.1217	539.69
67.1361	561.18
67.1506	557.62
67.1650	573.29
67.1795	562.78
67.1939	558.87
67.2083	569.06
67.2228	577.68
67.2372	598.93
67.2517	571.99
67.2661	556.93
67.2805	562.32
67.2950	607.63
67.3094	611.54
67.3239	562.16
67.3383	588.74
67.3527	580.13
67.3672	565.27
67.3816	586.36
67.3961	549.84
67.4105	566.09
67.4250	597.43
67.4394	577.57
67.4538	578.54
67.4683	611.96
67.4827	612.97
67.4972	561.74
67.5116	567.40
67.5260	566.20
67.5405	588.69
67.5549	558.25
67.5694	548.10
67.5838	525.21
67.5982	551.04
67.6127	578.22
67.6271	577.19
67.6416	558.51
67.6560	556.81
67.6704	526.88
67.6849	541.54
67.6993	542.72
67.7138	585.05
67.7282	564.54
67.7426	552.54
67.7571	603.63
67.7715	562.55
67.7860	562.45
67.8004	527.93
67.8148	591.63
67.8293	581.25
67.8437	560.42
67.8582	575.63
67.8726	597.87
67.8870	574.08
67.9015	574.43
67.9159	566.65
67.9304	574.34
67.9448	568.89
67.9592	544.20
67.9737	545.60
67.9881	568.44
68.0026	562.40
68.0170	596.50
68.0314	618.99
68.0459	567.97
68.0603	556.87
68.0748	545.08
68.0892	558.77
68.1036	567.91
68.1181	570.70
68.1325	568.95
68.1470	553.92
68.1614	589.69
68.1758	571.01
68.1903	542.47
68.2047	540.11
68.2192	576.38
68.2336	582.86
68.2480	550.56
68.2625	562.83
68.2769	566.87
68.2914	570.81
68.3058	573.92
68.3202	620.02
68.3347	596.45
68.3491	560.11
68.3636	574.36
68.3780	570.09
68.3924	546.22
68.4069	563.88
68.4213	542.78
68.4358	557.17
68.4502	568.04
68.4646	571.00
68.4791	568.51
68.4935	585.40
68.5080	577.60
68.5224	589.20
68.5368	548.45
68.5513	609.38
68.5657	613.13
68.5802	587.13
68.5946	546.10
68.6090	571.61
68.6235	601.31
68.6379	554.63
68.6524	582.43
68.6668	567.24
68.6812	561.21
68.6957	558.25
68.7101	586.13
68.7246	578.20
68.7390	559.15
68.7534	524.84
68.7679	562.85
68.7823	575.70
68.7968	591.19
68.8112	581.47
68.8256	569.09
68.8401	556.51
68.8545	550.39
68.8690	585.13
68.8834	569.29
68.8978	558.50
68.9123	572.06
68.9267	575.30
68.9412	587.00
68.9556	552.52
68.9700	552.33
68.9845	543.70
68.9989	559.89
69.0134	577.95
69.0278	575.21
69.0422	574.09
69.0567	592.37
69.0711	551.21
69.0856	619.17
69.1000	582.81
69.1144	572.04
69.1289	589.54
69.1433	545.30
69.1578	599.71
69.1722	608.27
69.1866	556.78
69.2011	533.97
69.2155	572.00
69.2300	544.62
69.2444	605.17
69.2588	514.10
69.2733	522.15
69.2877	556.84
69.3022	547.01
69.3166	584.76
69.3310	607.07
69.3455	560.32
69.3599	592.27
69.3744	597.29
69.3888	565.44
69.4032	589.08
69.4177	543.48
69.4321	564.32
69.4466	547.05
69.4610	560.08
69.4754	603.42
69.4899	569.38
69.5043	552.63
69.5188	600.63
69.5332	544.49
69.5476	546.32
69.5621	558.93
69.5765	543.83
69.5910	540.87
69.6054	555.38
69.6198	566.58
69.6343	571.18
69.6487	596.20
69.6632	564.19
69.6776	540.46
69.6920	573.27
69.7065	619.33
69.7209	586.89
69.7354	550.00
69.7498	543.82
69.7642	547.69
69.7787	558.50
69.7931	553.92
69.8076	588.84
69.8220	624.45
69.8364	596.47
69.8509	560.33
69.8653	533.73
69.8798	560.93
69.8942	563.52
69.9086	543.35
69.9231	527.23
69.9375	575.45
69.9520	597.38
69.9664	591.27
69.9808	619.34
69.9953	572.11
70.0097	584.82
70.0242	575.35
70.0386	633.13
70.0530	609.44
70.0675	566.17
70.0819	556.90
70.0964	584.81
70.1108	592.34
70.1252	617.91
70.1397	565.96
70.1541	587.55
70.1686	563.84
70.1830	578.24
70.1974	600.27
70.2119	585.42
70.2263	545.20
70.2408	583.33
70.2552	588.73
70.2696	608.20
70.2841	555.69
70.2985	537.55
70.3130	556.11
70.3274	557.61
70.3418	585.50
70.3563	535.23
70.3707	545.25
70.3852	580.83
70.3996	600.25
70.4140	578.26
70.4285	589.65
70.4429	546.80
70.4574	543.69
70.4718	589.32
70.4862	564.01
70.5007	524.53
70.5151	570.79
70.5296	596.58
70.5440	633.66
70.5584	603.27
70.5729	536.61
70.5873	531.09
70.6018	550.79
70.6162	563.45
70.6306	562.10
70.6451	539.02
70.6595	545.63
70.6740	565.06
70.6884	562.97
70.7028	535.32
70.7173	601.05
70.7317	625.50
70.7462	608.52
70.7606	569.70
70.7750	557.67
70.7895	562.34
70.8039	591.32
70.8184	540.49
70.8328	573.69
70.8472	583.21
70.8617	584.79
70.8761	584.90
70.8906	506.22
70.9050	571.99
70.9194	633.62
70.9339	642.01
70.9483	545.23
70.9628	529.68
70.9772	558.50
70.9916	601.75
71.0061	599.00
71.0205	558.56
71.0350	585.06
71.0494	572.52
71.0638	577.81
71.0783	614.40
71.0927	613.71
71.1072	605.94
71.1216	592.07
71.1361	550.00
71.1505	545.00
71.1649	560.86
71.1794	591.43
71.1938	609.95
71.2083	577.56
71.2227	549.81
71.2371	562.13
71.2516	538.65
71.2660	532.49
71.2805	542.32
71.2949	520.80
71.3093	539.54
71.3238	537.18
71.3382	561.23
71.3527	563.82
71.3671	563.70
71.3815	582.94
71.3960	595.71
71.4104	588.19
71.4249	603.82
71.4393	540.96
71.4537	545.73
71.4682	596.18
71.4826	637.34
71.4971	577.45
71.5115	550.01
71.5259	538.60
71.5404	558.78
71.5548	555.94
71.5693	564.08
71.5837	543.56
71.5981	505.37
71.6126	533.55
71.6270	581.84
71.6415	576.20
71.6559	604.25
71.6703	603.79
71.6848	516.15
71.6992	547.38
71.7137	577.30
71.7281	535.98
71.7425	555.46
71.7570	609.70
71.7714	607.89
71.7859	527.72
71.8003	596.70
71.8147	585.77
71.8292	553.36
71.8436	575.46
71.8581	513.57
71.8725	570.76
71.8869	581.54
71.9014	589.27
71.9158	697.13
71.9303	681.21
71.9447	607.11
71.9591	606.33
71.9736	592.25
71.9880	571.81
72.0025	552.89
72.0169	513.49
72.0313	519.98
72.0458	563.50
72.0602	559.69
72.0747	552.63
72.0891	645.94
72.1035	682.39
72.1180	637.46
72.1324	612.62
72.1469	593.52
72.1613	648.57
72.1757	683.43
72.1902	651.63
72.2046	610.10
72.2191	629.25
72.2335	632.60
72.2479	627.82
72.2624	606.78
72.2768	572.30
72.2913	547.33
72.3057	564.35
72.3201	576.74
72.3346	529.75
72.3490	529.75
72.3635	554.13
72.3779	542.95
72.3923	593.52
72.4068	614.22
72.4212	605.20
72.4357	673.65
72.4501	619.30
72.4645	570.40
72.4790	575.32
72.4934	643.93
72.5079	611.07
72.5223	512.87
72.5367	640.23
72.5512	673.54
72.5656	567.12
72.5801	506.64
72.5945	508.77
72.6089	521.17
72.6234	618.41
72.6378	552.82
72.6523	514.17
72.6667	531.59
72.6811	570.77
72.6956	612.11
72.7100	602.24
72.7245	555.50
72.7389	535.73
72.7533	493.13
72.7678	533.63
72.7822	578.80
72.7967	474.59
72.8111	497.95
72.8255	610.03
72.8400	632.38
72.8544	577.81
72.8689	567.95
72.8833	642.00

Result vector
22.1120	530.77
22.1264	616.87
22.1409	576.85
22.1553	498.62
22.1697	596.63
22.1842	516.84
22.1986	501.46
22.2131	568.95
22.2275	603.08
22.2419	560.13
22.2564	544.05
22.2708	555.51
22.2853	528.34
22.2997	563.99
22.3141	606.98
22.3286	666.31
22.3430	626.45
22.3575	589.61
22.3719	534.84
22.3863	547.13
22.4008	574.70
22.4152	579.34
22.4297	635.28
22.4441	643.72
22.4585	642.60
22.4730	521.02
22.4874	575.41
22.5019	644.91
22.5163	609.24
22.5307	561.84
22.5452	487.99
22.5596	570.83
22.5741	691.52
22.5885	591.08
22.6029	529.39
22.6174	540.29
22.6318	521.83
22.6463	523.61
22.6607	564.65
22.6751	617.59
22.6896	572.10
22.7040	569.57
22.7185	547.82
22.7329	469.80
22.7473	562.11
22.7618	551.92
22.7762	552.56
22.7907	606.79
22.8051	593.31
22.8195	540.81
22.8340	582.40
22.8484	603.85
22.8629	609.66
22.8773	599.35
22.8917	550.77
22.9062	651.29
22.9206	625.51
22.9351	559.12
22.9495	618.37
22.9639	568.00
22.9784	557.64
22.9928	592.35
23.0073	579.73
23.0217	537.79
23.0361	540.21
23.0506	587.56
23.0650	607.55
23.0795	583.41
23.0939	661.97
23.1083	533.16
23.1228	576.03
23.1372	539.39
23.1517	486.01
23.1661	530.85
23.1806	567.37
23.1950	537.23
23.2094	610.29
23.2239	560.82
23.2383	572.10
23.2528	572.92
23.2672	564.63
23.2816	600.07
23.2961	616.10
23.3105	550.64
23.3250	536.90
23.3394	535.74
23.3538	550.56
23.3683	552.76
23.3827	575.44
23.3972	504.73
23.4116	607.82
23.4260	593.02
23.4405	513.88
23.4549	554.74
23.4694	596.90
23.4838	596.59
23.4982	556.87
23.5127	524.89
23.5271	582.13
23.5416	556.44
23.5560	563.14
23.5704	521.40
23.5849	518.07
23.5993	596.31
23.6138	584.24
23.6282	535.76
23.6426	529.97
23.6571	479.26
23.6715	514.75
23.6860	617.08
23.7004	584.62
23.7148	581.63
23.7293	575.13
23.7437	460.79
23.7582	551.77
23.7726	510.77
23.7870	568.74
23.8015	530.89
23.8159	514.74
23.8304	593.58
23.8448	540.00
23.8592	574.13
23.8737	530.79
23.8881	584.61
23.9026	585.89
23.9170	566.01
23.9314	509.17
23.9459	584.01
23.9603	495.04
23.9748	533.54
23.9892	515.20
24.0036	557.96
24.0181	611.75
24.0325	637.04
24.0470	578.47
24.0614	571.33
24.0758	503.45
24.0903	611.84
24.1047	585.23
24.1192	553.95
24.1336	612.68
24.1480	546.12
24.1625	562.08
24.1769	601.25
24.1914	539.79
24.2058	550.39
24.2202	606.90
24.2347	575.63
24.2491	526.29
24.2636	580.98
24.2780	584.77
24.2924	593.05
24.3069	600.21
24.3213	627.28
24.3358	624.84
24.3502	532.60
24.3646	578.02
24.3791	520.03
24.3935	538.85
24.4080	585.39
24.4224	564.72
24.4368	586.83
24.4513	525.93
24.4657	591.99
24.4802	618.45
24.4946	536.08
24.5090	555.30
24.5235	591.02
24.5379	561.52
24.5524	544.02
24.5668	509.99
24.5812	543.43
24.5957	596.01
24.6101	569.95
24.6246	567.60
24.6390	530.33
24.6534	575.78
24.6679	515.61
24.6823	549.11
24.6968	533.15
24.7112	551.99
24.7256	553.85
24.7401	550.95
24.7545	513.89
24.7690	526.98
24.7834	538.29
24.7978	591.23
24.8123	538.44
24.8267	565.46
24.8412	557.44
24.8556	519.24
24.8700	570.70
24.8845	597.14
24.8989	539.33
24.9134	539.00
24.9278	530.72
24.9422	554.27
24.9567	502.96
24.9711	534.67
24.9856	572.76
25.0000	571.33
25.0144	504.71
25.0289	540.08
25.0433	550.33
25.0578	541.32
25.0722	526.84
25.0866	527.98
25.1011	539.41
25.1155	570.94
25.1300	577.54
25.1444	550.60
25.1588	569.58
25.1733	584.80
25.1877	548.35
25.2022	524.36
25.2166	556.35
25.2310	575.37
25.2455	581.63
25.2599	482.80
25.2744	522.55
25.2888	568.27
25.3032	544.81
25.3177	535.61
25.3321	562.96
25.3466	544.37
25.3610	527.05
25.3754	531.21
25.3899	471.65
25.4043	515.82
25.4188	538.46
25.4332	531.07
25.4476	539.95
25.4621	559.22
25.4765	559.43
25.4910	547.36
25.5054	552.21
25.5198	522.95
25.5343	544.52
25.5487	522.41
25.5632	514.98
25.5776	508.74
25.5920	540.09
25.6065	535.64
25.6209	532.67
25.6354	524.02
25.6498	546.52
25.6642	510.74
25.6787	517.70
25.6931	501.99
25.7076	518.49
25.7220	536.48
25.7364	524.97
25.7509	523.85
25.7653	541.55
25.7798	553.91
25.7942	527.35
25.8086	569.35
25.8231	530.62
25.8375	507.60
25.8520	517.88
25.8664	513.20
25.8808	492.96
25.8953	539.77
25.9097	544.36
25.9242	527.98
25.9386	563.00
25.9530	523.17
25.9675	519.49
25.9819	582.02
25.9964	538.27
26.0108	518.56
26.0252	522.20
26.0397	522.70
26.0541	518.83
26.0686	534.48
26.0830	581.03
26.0974	568.83
26.1119	516.75
26.1263	526.88
26.1408	508.85
26.1552	496.79
26.1696	555.12
26.1841	532.07
26.1985	497.46
26.2130	536.03
26.2274	506.39
26.2418	537.10
26.2563	547.34
26.2707	496.25
26.2852	497.35
26.2996	509.48
26.3140	545.11
26.3285	534.56
26.3429	528.25
26.3574	487.97
26.3718	496.52
26.3862	505.85
26.4007	540.55
26.4151	549.04
26.4296	518.43
26.4440	486.87
26.4584	539.14
26.4729	570.97
26.4873	552.41
26.5018	534.55
26.5162	541.47
26.5306	514.47
26.5451	506.60
26.5595	499.06
26.5740	506.00
26.5884	537.27
26.6028	532.61
26.6173	544.87
26.6317	538.12
26.6462	526.95
26.6606	544.02
26.6750	520.11
26.6895	520.29
26.7039	519.49
26.7184	552.43
26.7328	498.96
26.7472	482.17
26.7617	527.83
26.7761	556.16
26.7906	517.59
26.8050	509.85
26.8194	535.94
26.8339	553.09
26.8483	514.86
26.8628	520.10
26.8772	512.12
26.8917	511.22
26.9061	543.75
26.9205	552.88
26.9350	552.91
26.9494	513.91
26.9639	526.61
26.9783	499.10
26.9927	514.56
27.0072	530.06
27.0216	535.83
27.0361	524.82
27.0505	510.13
27.0649	540.05
27.0794	526.78
27.0938	523.09
27.1083	538.32
27.1227	519.44
27.1371	499.27
27.1516	523.52
27.1660	540.63
27.1805	522.38
27.1949	517.26
27.2093	527.21
27.2238	490.67
27.2382	493.62
27.2527	502.31
27.2671	494.58
27.2815	493.64
27.2960	497.36
27.3104	529.22
27.3249	557.68
27.3393	557.72
27.3537	533.48
27.3682	500.71
27.3826	513.43
27.3971	522.27
27.4115	518.37
27.4259	518.52
27.4404	523.59
27.4548	501.81
27.4693	541.29
27.4837	533.78
27.4981	504.26
27.5126	486.85
27.5270	516.27
27.5415	528.43
27.5559	521.11
27.5703	513.95
27.5848	492.50
27.5992	489.65
27.6137	495.87
27.6281	522.41
27.6425	517.44
27.6570	502.45
27.6714	490.54
27.6859	498.37
27.7003	505.86
27.7147	484.76
27.7292	509.45
27.7436	542.77
27.7581	522.79
27.7725	551.54
27.7869	564.23
27.8014	513.81
27.8158	511.24
27.8303	501.83
27.8447	500.82
27.8591	511.37
27.8736	516.19
27.8880	504.54
27.9025	518.10
27.9169	488.49
27.9313	490.74
27.9458	525.46
27.9602	467.83
27.9747	501.17
27.9891	495.55
28.0035	514.00
28.0180	541.75
28.0324	508.16
28.0469	475.11
28.0613	552.89
28.0757	506.00
28.0902	491.20
28.1046	516.18
28.1191	483.01
28.1335	518.02
28.1479	509.91
28.1624	512.49
28.1768	537.10
28.1913	496.55
28.2057	516.27
28.2201	531.28
28.2346	518.79
28.2490	533.01
28.2635	511.83
28.2779	498.76
28.2923	484.63
28.3068	511.75
28.3212	518.84
28.3357	506.08
28.3501	477.71
28.3645	480.27
28.3790	535.55
28.3934	514.43
28.4079	510.50
28.4223	533.76
28.4367	503.12
28.4512	534.16
28.4656	503.57
28.4801	517.90
28.4945	527.37
28.5089	510.46
28.5234	504.61
28.5378	496.50
28.5523	532.71
28.5667	503.44
28.5811	516.35
28.5956	524.59
28.6100	506.15
28.6245	525.09
28.6389	539.42
28.6533	530.61
28.6678	508.97
28.6822	492.49
28.6967	535.38
28.7111	538.07
28.7255	516.18
28.7400	518.42
28.7544	553.13
28.7689	523.61
28.7833	529.49
28.7977	512.00
28.8122	529.64
28.8266	492.93
28.8411	508.01
28.8555	536.95
28.8699	517.56
28.8844	492.58
28.8988	536.27
28.9133	515.32
28.9277	530.06
28.9421	516.39
28.9566	501.84
28.9710	495.56
28.9855	484.13
28.9999	471.45
29.0143	492.54
29.0288	513.97
29.0432	477.19
29.0577	497.55
29.0721	476.46
29.0865	505.65
29.1010	504.31
29.1154	515.68
29.1299	521.71
29.1443	506.13
29.1587	501.74
29.1732	500.77
29.1876	497.17
29.2021	485.66
29.2165	503.01
29.2309	499.45
29.2454	505.96
29.2598	502.01
29.2743	500.50
29.2887	506.83
29.3031	490.40
29.3176	542.06
29.3320	504.48
29.3465	515.85
29.3609	521.06
29.3753	519.12
29.3898	474.64
29.4042	500.30
29.4187	531.65
29.4331	520.88
29.4475	499.77
29.4620	519.18
29.4764	528.35
29.4909	527.17
29.5053	487.80
29.5197	513.75
29.5342	515.31
29.5486	529.79
29.5631	513.16
29.5775	502.03
29.5919	508.47
29.6064	485.26
29.6208	508.82
29.6353	524.60
29.6497	519.62
29.6641	460.41
29.6786	485.64
29.6930	488.36
29.7075	505.60
29.7219	496.06
29.7363	513.08
29.7508	497.69
29.7652	501.83
29.7797	510.61
29.7941	459.92
29.8085	475.59
29.8230	469.06
29.8374	507.18
29.8519	522.44
29.8663	497.99
29.8807	495.83
29.8952	518.46
29.9096	500.57
29.9241	536.04
29.9385	500.72
29.9529	480.97
29.9674	477.99
29.9818	498.69
29.9963	522.59
30.0107	519.72
30.0251	543.38
30.0396	483.06
30.0540	500.28
30.0685	500.44
30.0829	512.82
30.0973	486.80
30.1118	501.24
30.1262	520.37
30.1407	516.93
30.1551	516.64
30.1695	515.65
30.1840	493.84
30.1984	492.48
30.2129	490.41
30.2273	529.52
30.2417	559.33
30.2562	522.06
30.2706	503.77
30.2851	503.58
30.2995	490.24
30.3139	528.12
30.3284	535.20
30.3428	514.72
30.3573	543.56
30.3717	526.67
30.3861	499.81
30.4006	499.10
30.4150	541.83
30.4295	541.91
30.4439	561.50
30.4583	547.70
30.4728	563.15
30.4872	610.53
30.5017	607.44
30.5161	642.49
30.5305	672.23
30.5450	732.85
30.5594	766.75
30.5739	760.77
30.5883	783.53
30.6028	759.54
30.6172	711.40
30.6316	711.85
30.6461	696.21
30.6605	669.15
30.6750	663.10
30.6894	604.15
30.7038	607.16
30.7183	564.82
30.7327	532.69
30.7472	533.77
30.7616	544.96
30.7760	542.86
30.7905	545.24
30.8049	528.62
30.8194	508.06
30.8338	488.86
30.8482	507.57
30.8627	526.35
30.8771	508.48
30.8916	490.32
30.9060	516.03
30.9204	512.52
30.9349	521.76
30.9493	507.50
30.9638	469.53
30.9782	481.30
30.9926	523.62
31.0071	520.41
31.0215	539.87
31.0360	536.32
31.0504	518.50
31.0648	514.57
31.0793	518.08
31.0937	539.00
31.1082	510.37
31.1226	539.14
31.1370	529.97
31.1515	495.24
31.1659	526.82
31.1804	516.06
31.1948	524.29
31.2092	497.69
31.2237	502.74
31.2381	513.36
31.2526	508.79
31.2670	536.22
31.2814	538.21
31.2959	517.63
31.3103	508.73
31.3248	551.04
31.3392	567.86
31.3536	549.93
31.3681	509.37
31.3825	553.89
31.3970	492.69
31.4114	489.86
31.4258	516.38
31.4403	495.00
31.4547	542.67
31.4692	516.54
31.4836	495.06
31.4980	508.62
31.5125	506.16
31.5269	495.04
31.5414	499.06
31.5558	539.97
31.5702	538.49
31.5847	513.56
31.5991	484.80
31.6136	484.85
31.6280	506.96
31.6424	517.05
31.6569	506.14
31.6713	491.16
31.6858	479.89
31.7002	504.18
31.7146	506.27
31.7291	518.69
31.7435	500.83
31.7580	506.82
31.7724	513.87
31.7868	505.10
31.8013	499.89
31.8157	495.95
31.8302	476.53
31.8446	501.02
31.8590	514.38
31.8735	501.07
31.8879	499.26
31.9024	527.44
31.9168	486.11
31.9312	512.06
31.9457	483.77
31.9601	495.33
31.9746	513.88
31.9890	506.36
32.0034	515.38
32.0179	537.28
32.0323	529.85
32.0468	527.90
32.0612	517.27
32.0756	487.18
32.0901	525.40
32.1045	482.87
32.1190	522.40
32.1334	532.05
32.1478	512.86
32.1623	517.65
32.1767	511.61
32.1912	485.13
32.2056	480.33
32.2200	512.84
32.2345	483.17
32.2489	506.21
32.2634	484.15
32.2778	495.29
32.2922	483.15
32.3067	497.43
32.3211	530.11
32.3356	542.69
32.3500	515.41
32.3644	516.71
32.3789	526.74
32.3933	493.10
32.4078	500.39
32.4222	501.91
32.4366	493.41
32.4511	502.08
32.4655	505.31
32.4800	492.69
32.4944	493.20
32.5088	513.40
32.5233	499.05
32.5377	496.99
32.5522	512.38
32.5666	472.73
32.5810	511.02
32.5955	519.04
32.6099	470.84
32.6244	488.24
32.6388	452.45
32.6532	481.74
32.6677	504.99
32.6821	526.48
32.6966	507.96
32.7110	512.03
32.7254	485.10
32.7399	491.97
32.7543	488.34
32.7688	507.68
32.7832	484.68
32.7976	490.83
32.8121	485.30
32.8265	490.42
32.8410	491.50
32.8554	479.72
32.8698	508.37
32.8843	498.44
32.8987	528.18
32.9132	536.01
32.9276	479.69
32.9420	509.19
32.9565	518.80
32.9709	509.17
32.9854	543.27
32.9998	525.66
33.0142	549.74
33.0287	470.37
33.0431	456.60
33.0576	529.30
33.0720	502.11
33.0864	489.91
33.1009	510.46
33.1153	491.95
33.1298	508.11
33.1442	518.33
33.1586	488.50
33.1731	524.71
33.1875	488.16
33.2020	455.79
33.2164	479.12
33.2308	520.86
33.2453	500.18
33.2597	489.33
33.2742	495.71
33.2886	516.37
33.3030	493.09
33.3175	501.60
33.3319	536.94
33.3464	476.99
33.3608	484.41
33.3752	536.34
33.3897	489.83
33.4041	492.89
33.4186	493.59
33.4330	519.80
33.4474	501.91
33.4619	466.20
33.4763	474.39
33.4908	467.98
33.5052	491.99
33.5196	492.70
33.5341	500.66
33.5485	488.69
33.5630	516.81
33.5774	518.59
33.5918	511.81
33.6063	533.14
33.6207	474.38
33.6352	501.22
33.6496	501.14
33.6640	486.42
33.6785	457.87
33.6929	493.01
33.7074	522.32
33.7218	506.86
33.7362	483.29
33.7507	492.83
33.7651	511.30
33.7796	517.58
33.7940	496.07
33.8084	524.11
33.8229	502.56
33.8373	491.65
33.8518	523.25
33.8662	517.76
33.8806	491.75
33.8951	512.93
33.9095	502.67
33.9240	485.78
33.9384	518.63
33.9528	507.23
33.9673	473.34
33.9817	551.70
33.9962	523.25
34.0106	507.43
34.0250	489.02
34.0395	521.17
34.0539	532.35
34.0684	517.37
34.0828	493.42
34.0972	500.10
34.1117	514.83
34.1261	501.70
34.1406	494.72
34.1550	481.56
34.1694	510.00
34.1839	512.49
34.1983	472.64
34.2128	498.99
34.2272	484.91
34.2417	494.53
34.2561	511.47
34.2705	506.62
34.2850	512.25
34.2994	523.48
34.3139	511.55
34.3283	506.92
34.3427	486.30
34.3572	518.87
34.3716	485.46
34.3861	516.88
34.4005	508.78
34.4149	484.89
34.4294	527.32
34.4438	504.80
34.4583	505.50
34.4727	563.45
34.4871	527.57
34.5016	506.82
34.5160	505.49
34.5305	518.58
34.5449	499.53
34.5593	504.44
34.5738	475.35
34.5882	474.53
34.6027	475.96
34.6171	491.82
34.6315	538.28
34.6460	514.91
34.6604	514.73
34.6749	523.23
34.6893	499.76
34.7037	495.42
34.7182	501.75
34.7326	524.26
34.7471	491.83
34.7615	495.98
34.7759	482.70
34.7904	486.45
34.8048	513.45
34.8193	509.07
34.8337	496.92
34.8481	489.61
34.8626	507.71
34.8770	498.36
34.8915	498.50
34.9059	535.78
34.9203	503.80
34.9348	509.95
34.9492	524.39
34.9637	515.87
34.9781	488.08
34.9925	487.45
35.0070	485.18
35.0214	535.43
35.0359	537.84
35.0503	486.24
35.0647	496.11
35.0792	497.62
35.0936	501.23
35.1081	511.93
35.1225	499.54
35.1369	507.93
35.1514	475.33
35.1658	513.68
35.1803	469.59
35.1947	463.53
35.2091	464.19
35.2236	504.49
35.2380	532.47
35.2525	524.27
35.2669	507.67
35.2813	521.59
35.2958	511.57
35.3102	497.92
35.3247	493.95
35.3391	542.09
35.3535	488.62
35.3680	478.78
35.3824	495.88
35.3969	515.11
35.4113	510.92
35.4257	513.00
35.4402	547.28
35.4546	521.57
35.4691	517.82
35.4835	531.81
35.4979	536.20
35.5124	536.93
35.5268	545.97
35.5413	533.46
35.5557	527.66
35.5701	534.42
35.5846	522.03
35.5990	520.51
35.6135	496.52
35.6279	519.99
35.6423	520.28
35.6568	507.64
35.6712	558.95
35.6857	602.88
35.7001	699.87
35.7145	775.17
35.7290	730.66
35.7434	671.85
35.7579	642.09
35.7723	640.03
35.7867	686.95
35.8012	725.65
35.8156	775.35
35.8301	703.56
35.8445	679.88
35.8589	764.53
35.8734	923.75
35.8878	1048.36
35.9023	1072.07
35.9167	1086.92
35.9311	1241.22
35.9456	1524.88
35.9600	1929.07
35.9745	2082.85
35.9889	2217.06
36.0033	2587.10
36.0178	3050.85
36.0322	3197.26
36.0467	2818.04
36.0611	2165.58
36.0755	1969.79
36.0900	2355.03
36.1044	2497.61
36.1189	1959.72
36.1333	1366.56
36.1477	1070.88
36.1622	1018.64
36.1766	981.77
36.1911	857.93
36.2055	757.46
36.2199	751.31
36.2344	738.57
36.2488	615.35
36.2633	595.95
36.2777	527.56
36.2921	579.20
36.3066	527.73
36.3210	539.78
36.3355	539.93
36.3499	563.78
36.3643	553.72
36.3788	547.10
36.3932	531.08
36.4077	552.19
36.4221	521.40
36.4365	521.58
36.4510	521.71
36.4654	547.40
36.4799	570.42
36.4943	558.38
36.5087	531.90
36.5232	545.08
36.5376	536.95
36.5521	537.48
36.5665	539.44
36.5809	512.50
36.5954	523.48
36.6098	525.15
36.6243	505.78
36.6387	553.89
36.6531	507.11
36.6676	509.35
36.6820	534.97
36.6965	498.33
36.7109	549.01
36.7253	554.98
36.7398	509.65
36.7542	529.48
36.7687	508.62
36.7831	542.17
36.7975	538.80
36.8120	547.44
36.8264	549.43
36.8409	586.79
36.8553	606.18
36.8697	600.87
36.8842	583.36
36.8986	574.13
36.9131	569.07
36.9275	585.50
36.9419	588.34
36.9564	595.76
36.9708	582.50
36.9853	549.61
36.9997	587.52
37.0141	522.87
37.0286	514.06
37.0430	558.39
37.0575	537.19
37.0719	499.01
37.0863	549.36
37.1008	529.06
37.1152	516.56
37.1297	532.35
37.1441	500.83
37.1585	505.29
37.1730	490.92
37.1874	500.68
37.2019	524.52
37.2163	481.89
37.2307	477.30
37.2452	506.39
37.2596	472.09
37.2741	498.60
37.2885	519.37
37.3029	503.95
37.3174	519.57
37.3318	513.09
37.3463	517.94
37.3607	526.80
37.3751	500.77
37.3896	476.30
37.4040	505.93
37.4185	509.73
37.4329	523.43
37.4473	493.18
37.4618	492.63
37.4762	497.44
37.4907	499.40
37.5051	479.30
37.5195	488.92
37.5340	507.21
37.5484	469.44
37.5629	506.05
37.5773	473.33
37.5917	486.40
37.6062	496.81
37.6206	509.38
37.6351	502.01
37.6495	494.31
37.6639	487.17
37.6784	510.05
37.6928	500.48
37.7073	508.24
37.7217	499.06
37.7361	498.80
37.7506	491.27
37.7650	508.52
37.7795	501.02
37.7939	496.54
37.8083	486.23
37.8228	517.13
37.8372	496.98
37.8517	499.92
37.8661	528.39
37.8805	513.50
37.8950	511.98
37.9094	538.83
37.9239	463.27
37.9383	497.00
37.9528	516.21
37.9672	485.34
37.9816	501.05
37.9961	528.81
38.0105	495.52
38.0250	516.89
38.0394	524.07
38.0538	522.35
38.0683	569.40
38.0827	509.15
38.0972	554.09
38.1116	498.25
38.1260	481.71
38.1405	482.61
38.1549	501.47
38.1694	515.71
38.1838	508.18
38.1982	516.00
38.2127	532.97
38.2271	501.88
38.2416	490.48
38.2560	482.54
38.2704	517.30
38.2849	518.63
38.2993	505.60
38.3138	520.35
38.3282	527.11
38.3426	513.56
38.3571	510.23
38.3715	482.20
38.3860	502.80
38.4004	516.44
38.4148	518.38
38.4293	586.42
38.4437	575.65
38.4582	613.75
38.4726	655.16
38.4870	664.91
38.5015	692.24
38.5159	759.63
38.5304	788.65
38.5448	793.13
38.5592	777.80
38.5737	751.56
38.5881	726.34
38.6026	700.91
38.6170	683.70
38.6314	665.79
38.6459	639.39
38.6603	652.86
38.6748	631.01
38.6892	608.01
38.7036	560.63
38.7181	572.76
38.7325	532.95
38.7470	532.15
38.7614	524.88
38.7758	504.31
38.7903	504.04
38.8047	482.11
38.8192	524.90
38.8336	476.12
38.8480	508.74
38.8625	523.81
38.8769	504.75
38.8914	460.10
38.9058	478.51
38.9202	495.74
38.9347	485.06
38.9491	497.59
38.9636	508.82
38.9780	520.45
38.9924	516.49
39.0069	469.67
39.0213	493.43
39.0358	477.41
39.0502	467.93
39.0646	488.54
39.0791	488.13
39.0935	526.08
39.1080	502.97
39.1224	498.03
39.1368	491.54
39.1513	473.73
39.1657	471.71
39.1802	518.13
39.1946	488.02
39.2090	462.44
39.2235	491.52
39.2379	531.60
39.2524	492.73
39.2668	495.69
39.2812	517.26
39.2957	496.39
39.3101	510.22
39.3246	497.10
39.3390	528.98
39.3534	536.19
39.3679	522.66
39.3823	532.31
39.3968	512.84
39.4112	477.66
39.4256	508.43
39.4401	484.77
39.4545	493.24
39.4690	521.59
39.4834	521.10
39.4978	533.70
39.5123	482.28
39.5267	464.01
39.5412	505.52
39.5556	505.13
39.5700	479.02
39.5845	461.82
39.5989	492.76
39.6134	470.07
39.6278	465.09
39.6422	482.42
39.6567	470.54
39.6711	474.11
39.6856	514.56
39.7000	504.76
39.7144	486.06
39.7289	477.17
39.7433	486.87
39.7578	484.37
39.7722	510.34
39.7866	477.99
39.8011	492.66
39.8155	502.34
39.8300	500.43
39.8444	464.38
39.8588	497.85
39.8733	503.61
39.8877	492.86
39.9022	491.53
39.9166	471.53
39.9310	497.08
39.9455	515.09
39.9599	489.27
39.9744	461.14
39.9888	489.23
40.0032	458.71
40.0177	492.16
40.0321	515.26
40.0466	460.46
40.0610	487.76
40.0754	469.06
40.0899	490.16
40.1043	495.41
40.1188	467.99
40.1332	522.29
40.1476	471.71
40.1621	456.72
40.1765	486.01
40.1910	461.09
40.2054	459.71
40.2198	471.32
40.2343	461.49
40.2487	480.21
40.2632	487.23
40.2776	492.74
40.2920	483.12
40.3065	487.50
40.3209	486.27
40.3354	530.11
40.3498	501.18
40.3642	506.19
40.3787	524.88
40.3931	495.04
40.4076	480.71
40.4220	488.01
40.4364	488.17
40.4509	503.12
40.4653	485.86
40.4798	475.23
40.4942	524.90
40.5086	535.61
40.5231	471.93
40.5375	473.85
40.5520	476.58
40.5664	468.60
40.5808	459.33
40.5953	491.16
40.6097	516.73
40.6242	499.04
40.6386	485.00
40.6530	485.38
40.6675	498.33
40.6819	461.13
40.6964	529.08
40.7108	521.72
40.7252	519.54
40.7397	528.58
40.7541	523.14
40.7686	515.44
40.7830	475.47
40.7974	512.37
40.8119	502.97
40.8263	462.89
40.8408	479.44
40.8552	492.68
40.8696	539.48
40.8841	512.46
40.8985	520.93
40.9130	498.49
40.9274	494.20
40.9418	500.39
40.9563	484.30
40.9707	473.40
40.9852	461.99
40.9996	517.09
41.0140	534.44
41.0285	517.40
41.0429	463.33
41.0574	512.43
41.0718	502.46
41.0862	518.52
41.1007	469.82
41.1151	458.27
41.1296	477.35
41.1440	504.35
41.1584	474.51
41.1729	442.35
41.1873	487.59
41.2018	469.16
41.2162	480.02
41.2306	504.50
41.2451	516.93
41.2595	480.55
41.2740	509.25
41.2884	499.45
41.3028	539.65
41.3173	486.76
41.3317	501.15
41.3462	527.46
41.3606	527.86
41.3750	485.03
41.3895	496.36
41.4039	510.67
41.4184	525.05
41.4328	493.94
41.4472	469.64
41.4617	465.71
41.4761	484.09
41.4906	511.97
41.5050	493.90
41.5194	500.37
41.5339	503.90
41.5483	547.16
41.5628	517.20
41.5772	495.76
41.5916	518.84
41.6061	494.15
41.6205	507.05
41.6350	497.34
41.6494	457.96
41.6639	456.08
41.6783	475.81
41.6927	471.41
41.7072	518.27
41.7216	497.58
41.7361	498.74
41.7505	460.15
41.7649	512.82
41.7794	504.50
41.7938	510.40
41.8083	507.73
41.8227	507.92
41.8371	504.44
41.8516	528.11
41.8660	560.20
41.8805	516.12
41.8949	534.43
41.9093	524.17
41.9238	519.61
41.9382	541.72
41.9527	532.75
41.9671	560.84
41.9815	545.96
41.9960	548.49
42.0104	593.06
42.0249	556.87
42.0393	577.41
42.0537	581.95
42.0682	569.66
42.0826	551.01
42.0971	565.20
42.1115	556.54
42.1259	583.64
42.1404	604.88
42.1548	635.82
42.1693	632.00
42.1837	705.55
42.1981	751.98
42.2126	853.96
42.2270	928.72
42.2415	1056.46
42.2559	1152.81
42.2703	1308.29
42.2848	1465.85
42.2992	1526.04
42.3137	1621.69
42.3281	1598.63
42.3425	1553.50
42.3570	1462.92
42.3714	1400.06
42.3859	1317.83
42.4003	1326.62
42.4147	1324.38
42.4292	1254.53
42.4436	1196.52
42.4581	1033.20
42.4725	969.07
42.4869	800.74
42.5014	724.94
42.5158	709.79
42.5303	675.06
42.5447	611.52
42.5591	585.34
42.5736	567.31
42.5880	550.30
42.6025	534.79
42.6169	574.16
42.6313	547.68
42.6458	540.95
42.6602	546.32
42.6747	516.93
42.6891	481.34
42.7035	502.79
42.7180	516.89
42.7324	524.75
42.7469	556.67
42.7613	538.89
42.7757	545.23
42.7902	510.68
42.8046	514.28
42.8191	533.42
42.8335	522.77
42.8479	473.96
42.8624	499.72
42.8768	558.84
42.8913	516.18
42.9057	525.36
42.9201	509.64
42.9346	499.22
42.9490	490.38
42.9635	515.49
42.9779	483.92
42.9923	505.80
43.0068	511.37
43.0212	475.56
43.0357	495.29
43.0501	519.66
43.0645	517.24
43.0790	558.65
43.0934	533.02
43.1079	507.38
43.1223	533.34
43.1367	492.29
43.1512	499.21
43.1656	506.04
43.1801	495.40
43.1945	495.07
43.2089	510.14
43.2234	527.66
43.2378	501.38
43.2523	506.29
43.2667	523.64
43.2811	538.39
43.2956	531.53
43.3100	558.30
43.3245	509.86
43.3389	521.52
43.3533	532.01
43.3678	526.38
43.3822	518.58
43.3967	513.64
43.4111	496.89
43.4255	527.74
43.4400	514.30
43.4544	495.45
43.4689	545.84
43.4833	491.12
43.4977	515.88
43.5122	523.43
43.5266	558.36
43.5411	519.64
43.5555	518.94
43.5699	515.93
43.5844	514.25
43.5988	514.18
43.6133	559.75
43.6277	543.16
43.6421	540.46
43.6566	544.09
43.6710	530.43
43.6855	596.10
43.6999	611.46
43.7143	645.79
43.7288	603.40
43.7432	675.51
43.7577	672.03
43.7721	671.59
43.7865	634.18
43.8010	596.90
43.8154	571.02
43.8299	612.54
43.8443	603.17
43.8587	593.14
43.8732	599.84
43.8876	606.80
43.9021	593.85
43.9165	592.52
43.9309	556.19
43.9454	538.95
43.9598	533.39
43.9743	509.76
43.9887	527.86
44.0031	494.33
44.0176	506.09
44.0320	506.69
44.0465	478.64
44.0609	526.39
44.0753	511.79
44.0898	509.52
44.1042	520.12
44.1187	548.77
44.1331	524.75
44.1475	494.49
44.1620	498.69
44.1764	504.27
44.1909	522.38
44.2053	498.00
44.2197	498.16
44.2342	500.95
44.2486	533.55
44.2631	512.46
44.2775	513.50
44.2919	523.02
44.3064	533.13
44.3208	552.10
44.3353	551.21
44.3497	540.39
44.3641	547.06
44.3786	535.27
44.3930	528.52
44.4075	546.86
44.4219	588.24
44.4363	574.57
44.4508	564.34
44.4652	549.84
44.4797	594.65
44.4941	574.65
44.5085	537.42
44.5230	585.53
44.5374	556.71
44.5519	587.74
44.5663	580.51
44.5807	567.59
44.5952	570.04
44.6096	582.78
44.6241	568.72
44.6385	583.02
44.6529	557.59
44.6674	558.14
44.6818	573.20
44.6963	635.60
44.7107	665.13
44.7251	716.07
44.7396	719.26
44.7540	779.39
44.7685	817.54
44.7829	884.51
44.7973	876.89
44.8118	835.93
44.8262	796.45
44.8407	769.76
44.8551	771.70
44.8695	727.48
44.8840	661.59
44.8984	722.59
44.9129	722.66
44.9273	689.48
44.9417	655.22
44.9562	595.67
44.9706	604.79
44.9851	537.84
44.9995	595.90
45.0139	572.11
45.0284	545.04
45.0428	571.80
45.0573	543.91
45.0717	516.67
45.0861	546.17
45.1006	526.39
45.1150	538.41
45.1295	508.04
45.1439	474.06
45.1583	481.61
45.1728	506.11
45.1872	538.11
45.2017	523.64
45.2161	511.19
45.2305	520.56
45.2450	525.61
45.2594	496.99
45.2739	495.83
45.2883	499.49
45.3028	544.91
45.3172	533.32
45.3316	547.84
45.3461	512.26
45.3605	482.90
45.3750	488.60
45.3894	517.76
45.4038	517.67
45.4183	523.26
45.4327	498.66
45.4472	506.95
45.4616	492.57
45.4760	529.77
45.4905	505.64
45.5049	498.39
45.5194	487.43
45.5338	518.92
45.5482	484.26
45.5627	512.92
45.5771	521.53
45.5916	504.22
45.6060	531.63
45.6204	510.78
45.6349	541.46
45.6493	494.23
45.6638	470.50
45.6782	480.25
45.6926	515.23
45.7071	508.40
45.7215	501.82
45.7360	496.65
45.7504	523.11
45.7648	492.19
45.7793	533.38
45.7937	518.40
45.8082	518.68
45.8226	480.59
45.8370	510.58
45.8515	532.07
45.8659	497.14
45.8804	501.61
45.8948	517.54
45.9092	512.89
45.9237	500.50
45.9381	520.03
45.9526	502.85
45.9670	526.19
45.9814	544.68
45.9959	540.88
46.0103	514.73
46.0248	520.67
46.0392	491.84
46.0536	509.60
46.0681	498.14
46.0825	491.20
46.0970	494.13
46.1114	511.40
46.1258	515.87
46.1403	505.35
46.1547	462.35
46.1692	495.08
46.1836	494.33
46.1980	510.12
46.2125	508.36
46.2269	475.87
46.2414	497.50
46.2558	475.96
46.2702	484.91
46.2847	477.65
46.2991	469.57
46.3136	493.27
46.3280	480.48
46.3424	472.28
46.3569	485.65
46.3713	513.67
46.3858	474.38
46.4002	503.12
46.4146	496.69
46.4291	531.71
46.4435	499.93
46.4580	495.51
46.4724	521.30
46.4868	517.62
46.5013	516.77
46.5157	504.59
46.5302	461.40
46.5446	509.01
46.5590	517.23
46.5735	504.59
46.5879	481.07
46.6024	461.50
46.6168	464.87
46.6312	470.38
46.6457	484.06
46.6601	483.54
46.6746	466.66
46.6890	458.91
46.7034	471.21
46.7179	479.55
46.7323	483.35
46.7468	478.15
46.7612	476.19
46.7756	494.09
46.7901	493.18
46.8045	495.82
46.8190	493.39
46.8334	525.96
46.8478	520.80
46.8623	524.83
46.8767	517.95
46.8912	492.86
46.9056	505.74
46.9200	503.43
46.9345	520.83
46.9489	496.22
46.9634	483.76
46.9778	516.48
46.9922	537.89
47.0067	500.51
47.0211	502.25
47.0356	498.19
47.0500	491.54
47.0644	531.47
47.0789	515.19
47.0933	513.50
47.1078	489.08
47.1222	508.55
47.1366	542.73
47.1511	502.93
47.1655	504.43
47.1800	488.95
47.1944	498.89
47.2088	518.20
47.2233	529.68
47.2377	500.99
47.2522	484.35
47.2666	517.29
47.2810	544.06
47.2955	518.57
47.3099	511.05
47.3244	500.18
47.3388	538.36
47.3532	523.00
47.3677	511.96
47.3821	499.46
47.3966	473.27
47.4110	493.82
47.4254	536.53
47.4399	496.89
47.4543	520.80
47.4688	494.13
47.4832	488.88
47.4976	511.26
47.5121	494.12
47.5265	517.39
47.5410	504.74
47.5554	500.72
47.5698	529.50
47.5843	501.19
47.5987	528.34
47.6132	491.05
47.6276	505.68
47.6420	512.10
47.6565	493.96
47.6709	460.33
47.6854	488.31
47.6998	486.24
47.7142	517.74
47.7287	490.29
47.7431	482.72
47.7576	505.69
47.7720	451.37
47.7864	513.86
47.8009	481.24
47.8153	509.60
47.8298	509.21
47.8442	510.65
47.8586	484.65
47.8731	507.31
47.8875	485.94
47.9020	495.55
47.9164	521.88
47.9308	514.29
47.9453	510.44
47.9597	514.28
47.9742	488.69
47.9886	506.23
48.0030	505.01
48.0175	516.41
48.0319	486.23
48.0464	485.21
48.0608	534.49
48.0752	504.96
48.0897	519.81
48.1041	481.68
48.1186	517.18
48.1330	528.72
48.1474	475.60
48.1619	522.91
48.1763	501.82
48.1908	494.99
48.2052	513.86
48.2196	481.72
48.2341	484.30
48.2485	526.44
48.2630	509.09
48.2774	512.89
48.2918	493.05
48.3063	525.64
48.3207	478.99
48.3352	513.49
48.3496	518.99
48.3640	502.38
48.3785	532.44
48.3929	481.49
48.4074	507.77
48.4218	523.40
48.4362	517.37
48.4507	489.13
48.4651	533.97
48.4796	531.31
48.4940	531.89
48.5084	504.85
48.5229	516.19
48.5373	518.10
48.5518	516.80
48.5662	506.24
48.5806	486.53
48.5951	493.60
48.6095	508.70
48.6240	516.86
48.6384	526.52
48.6528	511.49
48.6673	522.68
48.6817	496.98
48.6962	507.44
48.7106	486.93
48.7250	505.97
48.7395	527.13
48.7539	535.87
48.7684	541.08
48.7828	543.16
48.7972	522.86
48.8117	528.28
48.8261	519.63
48.8406	545.24
48.8550	513.62
48.8694	547.73
48.8839	523.23
48.8983	526.55
48.9128	555.39
48.9272	547.11
48.9416	585.60
48.9561	550.26
48.9705	518.33
48.9850	564.35
48.9994	538.26
49.0139	620.04
49.0283	584.22
49.0427	591.80
49.0572	661.26
49.0716	609.01
49.0861	619.91
49.1005	720.79
49.1149	740.35
49.1294	723.86
49.1438	766.52
49.1583	810.52
49.1727	855.58
49.1871	915.29
49.2016	948.48
49.2160	1039.49
49.2305	1143.19
49.2449	1271.19
49.2593	1295.82
49.2738	1378.64
49.2882	1509.62
49.3027	1645.26
49.3171	1659.32
49.3315	1759.48
49.3460	1766.40
49.3604	1852.33
49.3749	1790.37
49.3893	1755.69
49.4037	1713.54
49.4182	1794.30
49.4326	1760.59
49.4471	1674.28
49.4615	1648.66
49.4759	1566.22
49.4904	1515.83
49.5048	1424.81
49.5193	1333.19
49.5337	1257.86
49.5481	1146.85
49.5626	1139.34
49.5770	1053.15
49.5915	998.22
49.6059	898.78
49.6203	838.20
49.6348	837.54
49.6492	772.76
49.6637	724.11
49.6781	735.23
49.6925	662.55
49.7070	664.05
49.7214	660.07
49.7359	638.70
49.7503	600.19
49.7647	588.87
49.7792	583.68
49.7936	633.59
49.8081	610.58
49.8225	582.49
49.8369	543.56
49.8514	528.21
49.8658	582.85
49.8803	573.04
49.8947	567.68
49.9091	569.06
49.9236	514.21
49.9380	527.26
49.9525	559.44
49.9669	550.83
49.9813	488.45
49.9958	495.77
50.0102	536.76
50.0247	552.89
50.0391	521.87
50.0535	513.64
50.0680	536.58
50.0824	536.82
50.0969	537.32
50.1113	532.32
50.1257	529.82
50.1402	498.25
50.1546	507.31
50.1691	498.88
50.1835	509.05
50.1979	512.10
50.2124	502.91
50.2268	516.77
50.2413	510.64
50.2557	508.35
50.2701	507.50
50.2846	522.43
50.2990	475.34
50.3135	518.27
50.3279	523.58
50.3423	527.35
50.3568	506.31
50.3712	507.22
50.3857	519.48
50.4001	503.55
50.4145	495.58
50.4290	523.87
50.4434	527.12
50.4579	493.72
50.4723	508.19
50.4867	520.27
50.5012	503.19
50.5156	515.12
50.5301	522.14
50.5445	510.81
50.5589	507.28
50.5734	537.51
50.5878	490.29
50.6023	495.64
50.6167	501.64
50.6311	515.28
50.6456	521.89
50.6600	493.57
50.6745	490.08
50.6889	520.73
50.7033	546.56
50.7178	539.37
50.7322	486.56
50.7467	491.22
50.7611	485.90
50.7755	524.67
50.7900	564.42
50.8044	509.18
50.8189	490.34
50.8333	502.10
50.8477	522.37
50.8622	531.02
50.8766	547.11
50.8911	528.65
50.9055	509.91
50.9199	492.69
50.9344	501.76
50.9488	508.83
50.9633	504.07
50.9777	488.49
50.9921	495.46
51.0066	522.21
51.0210	511.71
51.0355	467.99
51.0499	490.15
51.0643	533.30
51.0788	549.06
51.0932	531.69
51.1077	460.53
51.1221	496.33
51.1365	523.38
51.1510	522.27
51.1654	487.50
51.1799	486.23
51.1943	523.83
51.2087	499.39
51.2232	501.30
51.2376	496.48
51.2521	512.45
51.2665	465.05
51.2809	510.05
51.2954	487.90
51.3098	498.55
51.3243	469.02
51.3387	492.37
51.3531	501.44
51.3676	516.40
51.3820	531.19
51.3965	486.95
51.4109	502.50
51.4253	535.95
51.4398	508.56
51.4542	496.73
51.4687	501.40
51.4831	509.92
51.4975	505.71
51.5120	488.79
51.5264	493.64
51.5409	520.95
51.5553	499.87
51.5697	477.76
51.5842	530.41
51.5986	503.04
51.6131	496.10
51.6275	483.80
51.6419	502.97
51.6564	519.10
51.6708	512.13
51.6853	481.37
51.6997	493.48
51.7141	508.13
51.7286	486.45
51.7430	480.62
51.7575	504.30
51.7719	534.45
51.7863	522.44
51.8008	503.57
51.8152	507.23
51.8297	515.24
51.8441	511.81
51.8585	518.25
51.8730	493.72
51.8874	514.86
51.9019	510.25
51.9163	493.52
51.9307	495.37
51.9452	498.88
51.9596	469.48
51.9741	445.13
51.9885	503.24
52.0029	512.75
52.0174	503.54
52.0318	546.15
52.0463	521.68
52.0607	522.05
52.0751	514.22
52.0896	518.33
52.1040	500.55
52.1185	519.62
52.1329	495.65
52.1473	495.77
52.1618	487.66
52.1762	521.08
52.1907	522.90
52.2051	535.51
52.2195	503.87
52.2340	502.32
52.2484	536.45
52.2629	447.31
52.2773	505.40
52.2917	488.42
52.3062	509.23
52.3206	499.83
52.3351	541.35
52.3495	499.01
52.3639	500.19
52.3784	492.57
52.3928	509.14
52.4073	522.91
52.4217	515.88
52.4361	531.32
52.4506	471.34
52.4650	493.42
52.4795	515.27
52.4939	497.68
52.5083	472.18
52.5228	509.29
52.5372	483.87
52.5517	484.68
52.5661	518.70
52.5805	509.20
52.5950	523.29
52.6094	514.00
52.6239	519.53
52.6383	498.58
52.6527	525.30
52.6672	511.90
52.6816	505.57
52.6961	511.26
52.7105	551.33
52.7250	543.84
52.7394	514.56
52.7538	487.39
52.7683	469.42
52.7827	484.30
52.7972	491.01
52.8116	528.66
52.8260	535.99
52.8405	501.53
52.8549	524.61
52.8694	529.74
52.8838	527.70
52.8982	546.43
52.9127	541.47
52.9271	520.51
52.9416	492.28
52.9560	520.48
52.9704	474.93
52.9849	536.18
52.9993	521.21
53.0138	515.07
53.0282	538.78
53.0426	455.70
53.0571	491.17
53.0715	533.64
53.0860	561.64
53.1004	498.68
53.1148	486.03
53.1293	498.38
53.1437	495.84
53.1582	514.57
53.1726	516.99
53.1870	496.34
53.2015	491.01
53.2159	515.84
53.2304	494.38
53.2448	480.84
53.2592	529.92
53.2737	522.84
53.2881	522.05
53.3026	498.93
53.3170	504.98
53.3314	540.08
53.3459	530.64
53.3603	534.19
53.3748	491.19
53.3892	476.89
53.4036	533.39
53.4181	533.92
53.4325	563.70
53.4470	509.42
53.4614	507.52
53.4758	530.18
53.4903	522.82
53.5047	487.83
53.5192	527.18
53.5336	517.47
53.5480	522.69
53.5625	502.23
53.5769	511.49
53.5914	492.87
53.6058	518.29
53.6202	511.54
53.6347	508.34
53.6491	491.70
53.6636	491.62
53.6780	517.27
53.6924	475.19
53.7069	499.07
53.7213	513.87
53.7358	505.45
53.7502	510.25
53.7646	494.26
53.7791	506.83
53.7935	506.59
53.8080	501.69
53.8224	515.13
53.8368	544.22
53.8513	494.43
53.8657	516.26
53.8802	502.49
53.8946	530.23
53.9090	553.25
53.9235	504.00
53.9379	503.35
53.9524	506.06
53.9668	502.50
53.9812	511.59
53.9957	495.68
54.0101	514.23
54.0246	549.34
54.0390	539.84
54.0534	511.63
54.0679	504.14
54.0823	549.79
54.0968	533.46
54.1112	514.64
54.1256	514.37
54.1401	526.00
54.1545	527.85
54.1690	536.48
54.1834	542.50
54.1978	564.88
54.2123	552.35
54.2267	588.46
54.2412	605.24
54.2556	619.88
54.2700	602.49
54.2845	660.00
54.2989	662.02
54.3134	610.91
54.3278	629.53
54.3422	618.43
54.3567	592.03
54.3711	599.60
54.3856	590.46
54.4000	581.82
54.4144	600.10
54.4289	617.78
54.4433	587.67
54.4578	563.04
54.4722	554.63
54.4866	562.85
54.5011	548.31
54.5155	564.68
54.5300	564.27
54.5444	557.54
54.5588	591.01
54.5733	540.05
54.5877	525.95
54.6022	510.45
54.6166	507.52
54.6310	501.36
54.6455	502.97
54.6599	513.75
54.6744	505.32
54.6888	499.94
54.7032	542.92
54.7177	515.03
54.7321	496.88
54.7466	533.70
54.7610	538.22
54.7754	514.45
54.7899	491.08
54.8043	518.16
54.8188	517.68
54.8332	531.24
54.8476	509.68
54.8621	524.98
54.8765	492.48
54.8910	516.86
54.9054	562.24
54.9198	490.89
54.9343	514.52
54.9487	506.31
54.9632	508.50
54.9776	509.15
54.9920	505.33
55.0065	522.59
55.0209	565.00
55.0354	528.98
55.0498	492.85
55.0642	505.26
55.0787	500.40
55.0931	522.37
55.1076	520.75
55.1220	504.16
55.1364	519.68
55.1509	479.04
55.1653	505.44
55.1798	472.40
55.1942	496.82
55.2086	491.37
55.2231	508.23
55.2375	495.89
55.2520	537.87
55.2664	543.39
55.2808	512.74
55.2953	489.22
55.3097	499.26
55.3242	504.75
55.3386	546.16
55.3530	504.75
55.3675	532.90
55.3819	501.99
55.3964	487.08
55.4108	462.16
55.4252	528.42
55.4397	521.36
55.4541	485.39
55.4686	495.19
55.4830	532.35
55.4974	501.50
55.5119	522.11
55.5263	503.39
55.5408	500.48
55.5552	519.56
55.5696	536.10
55.5841	536.83
55.5985	505.89
55.6130	493.42
55.6274	507.98
55.6418	500.48
55.6563	519.38
55.6707	506.13
55.6852	497.23
55.6996	546.72
55.7140	521.43
55.7285	557.70
55.7429	542.00
55.7574	537.23
55.7718	504.06
55.7862	538.21
55.8007	493.39
55.8151	506.15
55.8296	510.48
55.8440	507.79
55.8584	519.70
55.8729	490.38
55.8873	496.80
55.9018	517.69
55.9162	536.61
55.9306	529.88
55.9451	522.34
55.9595	522.01
55.9740	512.24
55.9884	535.84
56.0028	488.75
56.0173	537.84
56.0317	518.83
56.0462	483.15
56.0606	549.83
56.0750	517.38
56.0895	565.49
56.1039	482.94
56.1184	518.85
56.1328	544.41
56.1472	501.26
56.1617	516.67
56.1761	534.85
56.1906	515.33
56.2050	511.46
56.2194	493.62
56.2339	534.78
56.2483	553.29
56.2628	493.87
56.2772	537.93
56.2916	516.94
56.3061	534.17
56.3205	499.73
56.3350	501.99
56.3494	523.89
56.3639	518.78
56.3783	524.53
56.3927	503.25
56.4072	519.10
56.4216	504.77
56.4361	554.09
56.4505	535.78
56.4649	534.35
56.4794	552.78
56.4938	543.74
56.5083	523.65
56.5227	495.66
56.5371	501.28
56.5516	504.87
56.5660	525.23
56.5805	507.16
56.5949	547.37
56.6093	509.73
56.6238	507.36
56.6382	510.31
56.6527	568.78
56.6671	555.11
56.6815	527.59
56.6960	518.81
56.7104	507.36
56.7249	521.16
56.7393	537.52
56.7537	502.08
56.7682	534.69
56.7826	499.47
56.7971	521.06
56.8115	561.12
56.8259	557.53
56.8404	500.59
56.8548	535.02
56.8693	580.33
56.8837	516.30
56.8981	526.75
56.9126	556.03
56.9270	498.10
56.9415	539.02
56.9559	523.25
56.9703	493.14
56.9848	505.95
56.9992	509.95
57.0137	509.10
57.0281	523.50
57.0425	493.73
57.0570	540.33
57.0714	534.45
57.0859	507.90
57.1003	481.01
57.1147	519.62
57.1292	524.40
57.1436	499.82
57.1581	535.09
57.1725	502.76
57.1869	531.53
57.2014	515.50
57.2158	495.11
57.2303	496.38
57.2447	514.78
57.2591	491.03
57.2736	528.48
57.2880	544.96
57.3025	463.50
57.3169	504.78
57.3313	548.98
57.3458	547.70
57.3602	510.14
57.3747	500.36
57.3891	473.83
57.4035	502.78
57.4180	515.45
57.4324	509.73
57.4469	485.24
57.4613	544.47
57.4757	539.62
57.4902	557.50
57.5046	510.19
57.5191	495.81
57.5335	512.07
57.5479	509.28
57.5624	533.85
57.5768	532.69
57.5913	527.82
57.6057	536.64
57.6201	521.76
57.6346	547.29
57.6490	529.76
57.6635	528.78
57.6779	538.84
57.6923	514.69
57.7068	573.27
57.7212	573.64
57.7357	549.02
57.7501	555.20
57.7645	569.92
57.7790	609.81
57.7934	613.19
57.8079	641.86
57.8223	654.72
57.8367	654.65
57.8512	725.50
57.8656	778.64
57.8801	768.99
57.8945	754.41
57.9089	792.00
57.9234	700.46
57.9378	688.01
57.9523	647.73
57.9667	659.90
57.9811	663.89
57.9956	664.70
58.0100	667.26
58.0245	720.46
58.0389	683.77
58.0533	671.10
58.0678	648.02
58.0822	629.44
58.0967	602.53
58.1111	574.11
58.1255	562.97
58.1400	532.79
58.1544	506.41
58.1689	566.97
58.1833	566.67
58.1977	550.16
58.2122	575.33
58.2266	581.67
58.2411	565.43
58.2555	577.21
58.2699	573.57
58.2844	578.94
58.2988	546.83
58.3133	525.78
58.3277	522.39
58.3421	563.61
58.3566	528.91
58.3710	494.89
58.3855	513.82
58.3999	517.95
58.4143	557.33
58.4288	586.13
58.4432	544.16
58.4577	538.65
58.4721	555.28
58.4865	529.91
58.5010	536.28
58.5154	526.97
58.5299	529.49
58.5443	542.82
58.5587	558.81
58.5732	549.22
58.5876	513.21
58.6021	513.56
58.6165	529.98
58.6309	518.85
58.6454	506.11
58.6598	518.41
58.6743	520.57
58.6887	521.08
58.7031	535.88
58.7176	547.75
58.7320	528.62
58.7465	520.78
58.7609	498.17
58.7753	494.05
58.7898	541.79
58.8042	546.47
58.8187	532.36
58.8331	570.57
58.8475	519.91
58.8620	558.49
58.8764	544.38
58.8909	498.11
58.9053	531.76
58.9197	531.50
58.9342	518.30
58.9486	512.45
58.9631	503.29
58.9775	519.90
58.9919	486.37
59.0064	511.69
59.0208	516.59
59.0353	523.19
59.0497	524.53
59.0641	535.24
59.0786	539.66
59.0930	537.35
59.1075	543.50
59.1219	540.45
59.1363	557.06
59.1508	507.09
59.1652	552.50
59.1797	555.11
59.1941	521.92
59.2085	523.53
59.2230	514.07
59.2374	545.51
59.2519	571.47
59.2663	570.32
59.2807	571.48
59.2952	517.66
59.3096	547.90
59.3241	535.22
59.3385	568.23
59.3529	519.41
59.3674	525.78
59.3818	537.04
59.3963	542.28
59.4107	562.27
59.4251	569.09
59.4396	519.17
59.4540	526.90
59.4685	543.55
59.4829	529.79
59.4973	541.06
59.5118	543.92
59.5262	532.69
59.5407	562.15
59.5551	577.72
59.5695	563.32
59.5840	520.81
59.5984	503.94
59.6129	542.61
59.6273	542.44
59.6417	546.49
59.6562	511.43
59.6706	522.88
59.6851	500.18
59.6995	531.89
59.7139	547.17
59.7284	539.71
59.7428	531.68
59.7573	515.25
59.7717	526.66
59.7861	537.79
59.8006	515.25
59.8150	554.31
59.8295	561.17
59.8439	567.00
59.8583	515.49
59.8728	533.97
59.8872	568.74
59.9017	583.56
59.9161	509.49
59.9305	549.89
59.9450	567.35
59.9594	548.55
59.9739	562.88
59.9883	520.03
60.0027	515.87
60.0172	507.21
60.0316	510.16
60.0461	509.09
60.0605	548.56
60.0750	537.81
60.0894	549.89
60.1038	540.36
60.1183	506.58
60.1327	551.86
60.1472	516.32
60.1616	524.72
60.1760	542.03
60.1905	510.10
60.2049	501.74
60.2194	518.98
60.2338	506.85
60.2482	510.28
60.2627	517.69
60.2771	517.03
60.2916	562.48
60.3060	521.07
60.3204	517.81
60.3349	578.09
60.3493	547.46
60.3638	516.83
60.3782	495.07
60.3926	554.20
60.4071	514.53
60.4215	533.83
60.4360	550.27
60.4504	504.14
60.4648	517.12
60.4793	545.20
60.4937	504.97
60.5082	498.73
60.5226	521.61
60.5370	551.82
60.5515	542.76
60.5659	543.27
60.5804	565.14
60.5948	521.49
60.6092	538.69
60.6237	536.91
60.6381	535.93
60.6526	560.63
60.6670	525.86
60.6814	529.13
60.6959	534.01
60.7103	558.55
60.7248	516.06
60.7392	564.28
60.7536	544.47
60.7681	532.41
60.7825	544.82
60.7970	527.52
60.8114	516.64
60.8258	531.69
60.8403	571.05
60.8547	588.15
60.8692	555.25
60.8836	549.75
60.8980	525.97
60.9125	556.28
60.9269	566.70
60.9414	598.02
60.9558	545.99
60.9702	536.32
60.9847	524.80
60.9991	555.68
61.0136	514.30
61.0280	534.85
61.0424	558.51
61.0569	533.57
61.0713	558.86
61.0858	554.82
61.1002	509.65
61.1146	546.07
61.1291	540.93
61.1435	504.49
61.1580	525.05
61.1724	547.22
61.1868	556.17
61.2013	502.99
61.2157	535.34
61.2302	534.40
61.2446	567.00
61.2590	528.85
61.2735	557.89
61.2879	546.52
61.3024	521.65
61.3168	522.51
61.3312	523.06
61.3457	530.31
61.3601	507.15
61.3746	476.58
61.3890	507.12
61.4034	506.93
61.4179	542.92
61.4323	571.87
61.4468	501.42
61.4612	562.86
61.4756	542.61
61.4901	552.05
61.5045	545.50
61.5190	540.92
61.5334	550.56
61.5478	557.34
61.5623	520.39
61.5767	547.27
61.5912	533.33
61.6056	554.57
61.6200	547.16
61.6345	559.59
61.6489	524.28
61.6634	561.22
61.6778	548.37
61.6922	527.31
61.7067	551.15
61.7211	573.61
61.7356	530.64
61.7500	554.04
61.7644	498.11
61.7789	513.96
61.7933	562.78
61.8078	572.33
61.8222	572.20
61.8366	548.88
61.8511	542.49
61.8655	560.93
61.8800	554.19
61.8944	536.31
61.9088	539.27
61.9233	525.40
61.9377	552.04
61.9522	549.20
61.9666	568.02
61.9810	576.17
61.9955	518.91
62.0099	525.28
62.0244	550.45
62.0388	522.17
62.0532	536.13
62.0677	538.19
62.0821	572.40
62.0966	517.83
62.1110	532.07
62.1254	539.16
62.1399	548.55
62.1543	520.12
62.1688	539.71
62.1832	552.03
62.1976	557.60
62.2121	529.08
62.2265	536.77
62.2410	580.51
62.2554	565.60
62.2698	565.51
62.2843	551.39
62.2987	536.28
62.3132	560.78
62.3276	548.01
62.3420	572.66
62.3565	577.79
62.3709	525.05
62.3854	550.70
62.3998	548.74
62.4142	527.57
62.4287	563.52
62.4431	547.33
62.4576	530.34
62.4720	560.05
62.4864	568.03
62.5009	556.21
62.5153	545.43
62.5298	578.35
62.5442	570.98
62.5586	537.19
62.5731	538.66
62.5875	542.34
62.6020	572.71
62.6164	576.48
62.6308	585.36
62.6453	557.62
62.6597	514.35
62.6742	538.03
62.6886	548.55
62.7030	558.39
62.7175	568.73
62.7319	590.95
62.7464	552.19
62.7608	546.26
62.7752	543.62
62.7897	553.27
62.8041	545.05
62.8186	555.45
62.8330	576.11
62.8474	561.08
62.8619	590.05
62.8763	619.19
62.8908	594.77
62.9052	574.11
62.9196	584.60
62.9341	578.17
62.9485	563.94
62.9630	567.83
62.9774	566.26
62.9918	573.91
63.0063	558.38
63.0207	553.17
63.0352	584.27
63.0496	599.90
63.0640	583.93
63.0785	572.14
63.0929	573.56
63.1074	577.66
63.1218	556.72
63.1362	553.11
63.1507	558.55
63.1651	574.87
63.1796	583.97
63.1940	549.83
63.2084	582.05
63.2229	572.06
63.2373	599.17
63.2518	571.17
63.2662	575.84
63.2806	585.71
63.2951	601.99
63.3095	588.50
63.3240	591.26
63.3384	605.50
63.3528	620.46
63.3673	588.60
63.3817	591.30
63.3962	604.12
63.4106	612.53
63.4250	626.63
63.4395	626.47
63.4539	636.89
63.4684	712.59
63.4828	724.34
63.4972	732.44
63.5117	783.30
63.5261	792.66
63.5406	884.05
63.5550	910.37
63.5694	950.77
63.5839	967.88
63.5983	945.37
63.6128	857.57
63.6272	844.17
63.6416	798.31
63.6561	758.07
63.6705	723.59
63.6850	777.53
63.6994	820.03
63.7138	822.10
63.7283	796.08
63.7427	810.34
63.7572	754.80
63.7716	720.21
63.7861	766.64
63.8005	749.25
63.8149	709.95
63.8294	709.54
63.8438	662.93
63.8583	653.19
63.8727	626.61
63.8871	617.84
63.9016	660.78
63.9160	600.68
63.9305	629.23
63.9449	622.65
63.9593	568.58
63.9738	620.16
63.9882	619.08
64.0027	607.28
64.0171	620.62
64.0315	640.38
64.0460	614.52
64.0604	612.28
64.0749	644.32
64.0893	611.89
64.1037	609.61
64.1182	616.57
64.1326	601.17
64.1471	568.94
64.1615	596.56
64.1759	620.90
64.1904	601.29
64.2048	613.88
64.2193	606.78
64.2337	581.40
64.2481	579.91
64.2626	592.62
64.2770	610.01
64.2915	593.88
64.3059	617.92
64.3203	607.09
64.3348	629.44
64.3492	628.11
64.3637	598.89
64.3781	572.76
64.3925	591.14
64.4070	545.54
64.4214	580.89
64.4359	634.52
64.4503	629.05
64.4647	617.58
64.4792	596.61
64.4936	584.82
64.5081	612.42
64.5225	601.86
64.5369	649.51
64.5514	612.35
64.5658	621.50
64.5803	636.30
64.5947	613.89
64.6091	576.03
64.6236	591.73
64.6380	641.12
64.6525	685.90
64.6669	642.57
64.6813	682.35
64.6958	686.31
64.7102	690.90
64.7247	668.87
64.7391	675.07
64.7535	692.76
64.7680	645.78
64.7824	724.94
64.7969	746.90
64.8113	748.41
64.8257	762.83
64.8402	823.05
64.8546	826.28
64.8691	827.82
64.8835	789.57
64.8979	826.07
64.9124	881.34
64.9268	858.02
64.9413	939.42
64.9557	932.81
64.9701	922.43
64.9846	1046.62
64.9990	1101.20
65.0135	1169.10
65.0279	1344.88
65.0423	1631.77
65.0568	1937.53
65.0712	2515.33
65.0857	3253.13
65.1001	4276.27
65.1145	5816.42
65.1290	7628.47
65.1434	9190.79
65.1579	10695.19
65.1723	11466.44
65.1867	11134.89
65.2012	10006.50
65.2156	8282.53
65.2301	6664.16
65.2445	5284.92
65.2589	4361.15
65.2734	4081.44
65.2878	4255.66
65.3023	4710.53
65.3167	5493.60
65.3311	6406.68
65.3456	6882.73
65.3600	6802.77
65.3745	6434.49
65.3889	5505.89
65.4033	4327.34
65.4178	3469.20
65.4322	2716.11
65.4467	2042.60
65.4611	1675.94
65.4755	1453.49
65.4900	1256.32
65.5044	1150.41
65.5189	1000.95
65.5333	962.12
65.5477	918.23
65.5622	890.74
65.5766	840.32
65.5911	810.36
65.6055	796.24
65.6199	732.00
65.6344	757.71
65.6488	763.91
65.6633	710.45
65.6777	712.39
65.6921	700.26
65.7066	724.72
65.7210	687.28
65.7355	653.76
65.7499	678.03
65.7643	659.52
65.7788	662.92
65.7932	592.75
65.8077	650.36
65.8221	696.31
65.8365	675.80
65.8510	645.98
65.8654	667.08
65.8799	644.31
65.8943	619.54
65.9087	640.09
65.9232	639.92
65.9376	655.67
65.9521	610.88
65.9665	570.65
65.9809	648.72
65.9954	643.37
66.0098	612.58
66.0243	624.35
66.0387	615.26
66.0531	598.22
66.0676	643.71
66.0820	633.39
66.0965	646.77
66.1109	597.24
66.1253	607.69
66.1398	584.37
66.1542	579.62
66.1687	598.10
66.1831	605.70
66.1975	581.90
66.2120	624.01
66.2264	606.14
66.2409	607.96
66.2553	599.05
66.2697	621.93
66.2842	609.44
66.2986	565.33
66.3131	634.11
66.3275	590.63
66.3419	578.14
66.3564	604.97
66.3708	610.03
66.3853	634.34
66.3997	618.07
66.4141	606.76
66.4286	636.06
66.4430	597.09
66.4575	609.00
66.4719	582.31
66.4863	578.22
66.5008	580.96
66.5152	582.64
66.5297	605.46
66.5441	599.55
66.5585	631.40
66.5730	602.09
66.5874	611.24
66.6019	585.29
66.6163	537.58
66.6307	587.55
66.6452	590.19
66.6596	589.84
66.6741	599.65
66.6885	576.63
66.7029	603.99
66.7174	594.08
66.7318	574.15
66.7463	540.47
66.7607	534.59
66.7751	587.78
66.7896	574.62
66.8040	587.82
66.8185	582.14
66.8329	588.70
66.8473	570.55
66.8618	593.48
66.8762	570.56
66.8907	556.41
66.9051	555.51
66.9195	554.28
66.9340	576.04
66.9484	583.29
66.9629	553.09
66.9773	569.16
66.9917	555.53
67.0062	585.29
67.0206	606.57
67.0351	574.17
67.0495	576.88
67.0639	559.26
67.0784	575.03
67.0928	606.37
67.1073	582.25
67.1217	539.69
67.1361	561.18
67.1506	557.62
67.1650	573.29
67.1795	562.78
67.1939	558.87
67.2083	569.06
67.2228	577.68
67.2372	598.93
67.2517	571.99
67.2661	556.93
67.2805	562.32
67.2950	607.63
67.3094	611.54
67.3239	562.16
67.3383	588.74
67.3527	580.13
67.3672	565.27
67.3816	586.36
67.3961	549.84
67.4105	566.09
67.4250	597.43
67.4394	577.57
67.4538	578.54
67.4683	611.96
67.4827	612.97
67.4972	561.74
67.5116	567.40
67.5260	566.20
67.5405	588.69
67.5549	558.25
67.5694	548.10
67.5838	525.21
67.5982	551.04
67.6127	578.22
67.6271	577.19
67.6416	558.51
67.6560	556.81
67.6704	526.88
67.6849	541.54
67.6993	542.72
67.7138	585.05
67.7282	564.54
67.7426	552.54
67.7571	603.63
67.7715	562.55
67.7860	562.45
67.8004	527.93
67.8148	591.63
67.8293	581.25
67.8437	560.42
67.8582	575.63
67.8726	597.87
67.8870	574.08
67.9015	574.43
67.9159	566.65
67.9304	574.34
67.9448	568.89
67.9592	544.20
67.9737	545.60
67.9881	568.44
68.0026	562.40
68.0170	596.50
68.0314	618.99
68.0459	567.97
68.0603	556.87
68.0748	545.08
68.0892	558.77
68.1036	567.91
68.1181	570.70
68.1325	568.95
68.1470	553.92
68.1614	589.69
68.1758	571.01
68.1903	542.47
68.2047	540.11
68.2192	576.38
68.2336	582.86
68.2480	550.56
68.2625	562.83
68.2769	566.87
68.2914	570.81
68.3058	573.92
68.3202	620.02
68.3347	596.45
68.3491	560.11
68.3636	574.36
68.3780	570.09
68.3924	546.22
68.4069	563.88
68.4213	542.78
68.4358	557.17
68.4502	568.04
68.4646	571.00
68.4791	568.51
68.4935	585.40
68.5080	577.60
68.5224	589.20
68.5368	548.45
68.5513	609.38
68.5657	613.13
68.5802	587.13
68.5946	546.10
68.6090	571.61
68.6235	601.31
68.6379	554.63
68.6524	582.43
68.6668	567.24
68.6812	561.21
68.6957	558.25
68.7101	586.13
68.7246	578.20
68.7390	559.15
68.7534	524.84
68.7679	562.85
68.7823	575.70
68.7968	591.19
68.8112	581.47
68.8256	569.09
68.8401	556.51
68.8545	550.39
68.8690	585.13
68.8834	569.29
68.8978	558.50
68.9123	572.06
68.9267	575.30
68.9412	587.00
68.9556	552.52
68.9700	552.33
68.9845	543.70
68.9989	559.89
69.0134	577.95
69.0278	575.21
69.0422	574.09
69.0567	592.37
69.0711	551.21
69.0856	619.17
69.1000	582.81
69.1144	572.04
69.1289	589.54
69.1433	545.30
69.1578	599.71
69.1722	608.27
69.1866	556.78
69.2011	533.97
69.2155	572.00
69.2300	544.62
69.2444	605.17
69.2588	514.10
69.2733	522.15
69.2877	556.84
69.3022	547.01
69.3166	584.76
69.3310	607.07
69.3455	560.32
69.3599	592.27
69.3744	597.29
69.3888	565.44
69.4032	589.08
69.4177	543.48
69.4321	564.32
69.4466	547.05
69.4610	560.08
69.4754	603.42
69.4899	569.38
69.5043	552.63
69.5188	600.63
69.5332	544.49
69.5476	546.32
69.5621	558.93
69.5765	543.83
69.5910	540.87
69.6054	555.38
69.6198	566.58
69.6343	571.18
69.6487	596.20
69.6632	564.19
69.6776	540.46
69.6920	573.27
69.7065	619.33
69.7209	586.89
69.7354	550.00
69.7498	543.82
69.7642	547.69
69.7787	558.50
69.7931	553.92
69.8076	588.84
69.8220	624.45
69.8364	596.47
69.8509	560.33
69.8653	533.73
69.8798	560.93
69.8942	563.52
69.9086	543.35
69.9231	527.23
69.9375	575.45
69.9520	597.38
69.9664	591.27
69.9808	619.34
69.9953	572.11
70.0097	584.82
70.0242	575.35
70.0386	633.13
70.0530	609.44
70.0675	566.17
70.0819	556.90
70.0964	584.81
70.1108	592.34
70.1252	617.91
70.1397	565.96
70.1541	587.55
70.1686	563.84
70.1830	578.24
70.1974	600.27
70.2119	585.42
70.2263	545.20
70.2408	583.33
70.2552	588.73
70.2696	608.20
70.2841	555.69
70.2985	537.55
70.3130	556.11
70.3274	557.61
70.3418	585.50
70.3563	535.23
70.3707	545.25
70.3852	580.83
70.3996	600.25
70.4140	578.26
70.4285	589.65
70.4429	546.80
70.4574	543.69
70.4718	589.32
70.4862	564.01
70.5007	524.53
70.5151	570.79
70.5296	596.58
70.5440	633.66
70.5584	603.27
70.5729	536.61
70.5873	531.09
70.6018	550.79
70.6162	563.45
70.6306	562.10
70.6451	539.02
70.6595	545.63
70.6740	565.06
70.6884	562.97
70.7028	535.32
70.7173	601.05
70.7317	625.50
70.7462	608.52
70.7606	569.70
70.7750	557.67
70.7895	562.34
70.8039	591.32
70.8184	540.49
70.8328	573.69
70.8472	583.21
70.8617	584.79
70.8761	584.90
70.8906	506.22
70.9050	571.99
70.9194	633.62
70.9339	642.01
70.9483	545.23
70.9628	529.68
70.9772	558.50
70.9916	601.75
71.0061	599.00
71.0205	558.56
71.0350	585.06
71.0494	572.52
71.0638	577.81
71.0783	614.40
71.0927	613.71
71.1072	605.94
71.1216	592.07
71.1361	550.00
71.1505	545.00
71.1649	560.86
71.1794	591.43
71.1938	609.95
71.2083	577.56
71.2227	549.81
71.2371	562.13
71.2516	538.65
71.2660	532.49
71.2805	542.32
71.2949	520.80
71.3093	539.54
71.3238	537.18
71.3382	561.23
71.3527	563.82
71.3671	563.70
71.3815	582.94
71.3960	595.71
71.4104	588.19
71.4249	603.82
71.4393	540.96
71.4537	545.73
71.4682	596.18
71.4826	637.34
71.4971	577.45
71.5115	550.01
71.5259	538.60
71.5404	558.78
71.5548	555.94
71.5693	564.08
71.5837	543.56
71.5981	505.37
71.6126	533.55
71.6270	581.84
71.6415	576.20
71.6559	604.25
71.6703	603.79
71.6848	516.15
71.6992	547.38
71.7137	577.30
71.7281	535.98
71.7425	555.46
71.7570	609.70
71.7714	607.89
71.7859	527.72
71.8003	596.70
71.8147	585.77
71.8292	553.36
71.8436	575.46
71.8581	513.57
71.8725	570.76
71.8869	581.54
71.9014	589.27
71.9158	697.13
71.9303	681.21
71.9447	607.11
71.9591	606.33
71.9736	592.25
71.9880	571.81
72.0025	552.89
72.0169	513.49
72.0313	519.98
72.0458	563.50
72.0602	559.69
72.0747	552.63
72.0891	645.94
72.1035	682.39
72.1180	637.46
72.1324	612.62
72.1469	593.52
72.1613	648.57
72.1757	683.43
72.1902	651.63
72.2046	610.10
72.2191	629.25
72.2335	632.60
72.2479	627.82
72.2624	606.78
72.2768	572.30
72.2913	547.33
72.3057	564.35
72.3201	576.74
72.3346	529.75
72.3490	529.75
72.3635	554.13
72.3779	542.95
72.3923	593.52
72.4068	614.22
72.4212	605.20
72.4357	673.65
72.4501	619.30
72.4645	570.40
72.4790	575.32
72.4934	643.93
72.5079	611.07
72.5223	512.87
72.5367	640.23
72.5512	673.54
72.5656	567.12
72.5801	506.64
72.5945	508.77
72.6089	521.17
72.6234	618.41
72.6378	552.82
72.6523	514.17
72.6667	531.59
72.6811	570.77
72.6956	612.11
72.7100	602.24
72.7245	555.50
72.7389	535.73
72.7533	493.13
72.7678	533.63
72.7822	578.80
72.7967	474.59
72.8111	497.95
72.8255	610.03
72.8400	632.38
72.8544	577.81
72.8689	567.95
72.8833	642.00