2022.09.19 19:37:17
Îáðàçåö: ß÷åéêà LCoV 16-09-2022
Lambda1 = 1.54060
Lambda2 = 1.54439
Lambdam = 1.54186
R = 0.497
2Theta	I

line¹ 0 ;repeat¹ 0
22.1120	565.79
22.1264	577.94
22.1409	518.29
22.1553	542.92
22.1697	520.64
22.1842	529.09
22.1986	578.11
22.2131	667.12
22.2275	575.87
22.2419	660.58
22.2564	605.35
22.2708	549.41
22.2853	576.28
22.2997	597.64
22.3141	536.03
22.3286	601.97
22.3430	645.64
22.3575	632.94
22.3719	574.30
22.3863	531.37
22.4008	529.12
22.4152	603.09
22.4297	624.93
22.4441	603.85
22.4585	636.03
22.4730	683.27
22.4874	564.75
22.5019	585.71
22.5163	652.65
22.5307	586.94
22.5452	612.99
22.5596	638.35
22.5741	623.16
22.5885	573.26
22.6029	561.18
22.6174	586.59
22.6318	598.67
22.6463	610.00
22.6607	556.87
22.6751	574.59
22.6896	534.60
22.7040	501.14
22.7185	499.06
22.7329	607.51
22.7473	550.60
22.7618	562.63
22.7762	597.78
22.7907	565.06
22.8051	566.40
22.8195	578.35
22.8340	604.76
22.8484	541.04
22.8629	631.04
22.8773	585.11
22.8917	541.95
22.9062	498.90
22.9206	547.83
22.9351	541.75
22.9495	655.72
22.9639	614.01
22.9784	595.17
22.9928	585.55
23.0073	554.32
23.0217	601.88
23.0361	508.86
23.0506	542.51
23.0650	612.83
23.0795	575.61
23.0939	546.06
23.1083	503.44
23.1228	589.68
23.1372	562.16
23.1517	494.60
23.1661	550.70
23.1806	504.92
23.1950	563.71
23.2094	525.87
23.2239	564.42
23.2383	563.50
23.2528	557.19
23.2672	553.81
23.2816	563.82
23.2961	604.88
23.3105	570.60
23.3250	565.39
23.3394	616.88
23.3538	587.86
23.3683	527.77
23.3827	543.87
23.3972	530.27
23.4116	539.36
23.4260	562.94
23.4405	511.04
23.4549	509.10
23.4694	567.93
23.4838	535.99
23.4982	566.81
23.5127	572.14
23.5271	561.28
23.5416	549.89
23.5560	608.17
23.5704	535.58
23.5849	607.10
23.5993	516.50
23.6138	558.64
23.6282	542.22
23.6426	568.32
23.6571	532.61
23.6715	554.06
23.6860	519.38
23.7004	613.87
23.7148	623.56
23.7293	554.46
23.7437	542.12
23.7582	565.73
23.7726	588.47
23.7870	590.11
23.8015	626.17
23.8159	559.27
23.8304	568.98
23.8448	499.27
23.8592	589.69
23.8737	574.51
23.8881	583.29
23.9026	553.29
23.9170	652.39
23.9314	519.60
23.9459	556.16
23.9603	567.43
23.9748	632.60
23.9892	540.47
24.0036	535.80
24.0181	540.81
24.0325	638.15
24.0470	542.37
24.0614	691.09
24.0758	474.76
24.0903	562.15
24.1047	540.02
24.1192	535.66
24.1336	519.26
24.1480	523.14
24.1625	580.58
24.1769	589.99
24.1914	612.33
24.2058	540.33
24.2202	596.58
24.2347	576.11
24.2491	593.75
24.2636	571.03
24.2780	599.91
24.2924	576.46
24.3069	590.79
24.3213	521.50
24.3358	545.95
24.3502	581.13
24.3646	566.60
24.3791	542.00
24.3935	515.62
24.4080	540.15
24.4224	574.52
24.4368	544.81
24.4513	545.22
24.4657	538.12
24.4802	524.88
24.4946	575.33
24.5090	512.77
24.5235	571.36
24.5379	537.25
24.5524	576.30
24.5668	556.66
24.5812	531.50
24.5957	579.26
24.6101	550.13
24.6246	522.72
24.6390	513.69
24.6534	583.53
24.6679	508.54
24.6823	537.60
24.6968	520.69
24.7112	554.16
24.7256	530.08
24.7401	522.79
24.7545	537.67
24.7690	559.26
24.7834	502.97
24.7978	505.22
24.8123	530.36
24.8267	504.09
24.8412	638.69
24.8556	554.12
24.8700	555.12
24.8845	556.73
24.8989	558.47
24.9134	537.19
24.9278	513.99
24.9422	565.24
24.9567	564.43
24.9711	569.69
24.9856	516.90
25.0000	543.10
25.0144	579.22
25.0289	568.44
25.0433	520.16
25.0578	531.96
25.0722	568.64
25.0866	547.87
25.1011	527.89
25.1155	508.19
25.1300	573.17
25.1444	538.86
25.1588	559.41
25.1733	553.21
25.1877	530.35
25.2022	560.74
25.2166	563.98
25.2310	547.60
25.2455	543.11
25.2599	543.63
25.2744	564.21
25.2888	568.04
25.3032	553.97
25.3177	545.79
25.3321	560.81
25.3466	537.98
25.3610	553.25
25.3754	541.28
25.3899	525.38
25.4043	562.26
25.4188	534.87
25.4332	569.22
25.4476	510.54
25.4621	544.58
25.4765	497.38
25.4910	554.32
25.5054	521.00
25.5198	519.86
25.5343	553.56
25.5487	534.83
25.5632	530.28
25.5776	552.49
25.5920	523.18
25.6065	521.45
25.6209	535.92
25.6354	534.23
25.6498	522.57
25.6642	537.08
25.6787	529.71
25.6931	506.15
25.7076	585.32
25.7220	540.76
25.7364	542.81
25.7509	522.39
25.7653	541.10
25.7798	558.08
25.7942	507.91
25.8086	526.14
25.8231	548.87
25.8375	502.46
25.8520	532.84
25.8664	527.63
25.8808	528.45
25.8953	560.01
25.9097	585.38
25.9242	520.81
25.9386	522.20
25.9530	513.07
25.9675	503.42
25.9819	522.48
25.9964	522.32
26.0108	550.29
26.0252	571.63
26.0397	534.58
26.0541	493.59
26.0686	541.03
26.0830	551.57
26.0974	533.53
26.1119	513.42
26.1263	529.41
26.1408	515.06
26.1552	512.39
26.1696	560.10
26.1841	530.46
26.1985	510.87
26.2130	539.82
26.2274	567.50
26.2418	537.79
26.2563	519.95
26.2707	514.97
26.2852	534.01
26.2996	567.78
26.3140	558.73
26.3285	566.29
26.3429	562.14
26.3574	544.35
26.3718	503.65
26.3862	493.80
26.4007	507.92
26.4151	510.99
26.4296	536.58
26.4440	503.27
26.4584	556.26
26.4729	544.18
26.4873	567.79
26.5018	566.37
26.5162	551.06
26.5306	559.44
26.5451	528.93
26.5595	508.27
26.5740	527.89
26.5884	526.25
26.6028	515.15
26.6173	548.36
26.6317	549.88
26.6462	497.62
26.6606	541.54
26.6750	556.82
26.6895	533.61
26.7039	529.43
26.7184	530.00
26.7328	533.16
26.7472	512.54
26.7617	509.50
26.7761	518.82
26.7906	551.78
26.8050	560.60
26.8194	517.41
26.8339	533.87
26.8483	545.12
26.8628	553.19
26.8772	557.14
26.8917	517.29
26.9061	541.18
26.9205	541.84
26.9350	539.02
26.9494	521.08
26.9639	496.88
26.9783	490.44
26.9927	509.38
27.0072	512.51
27.0216	499.46
27.0361	524.02
27.0505	534.85
27.0649	510.32
27.0794	484.53
27.0938	522.32
27.1083	519.00
27.1227	533.78
27.1371	530.32
27.1516	488.03
27.1660	476.83
27.1805	498.85
27.1949	503.38
27.2093	515.12
27.2238	506.50
27.2382	520.44
27.2527	515.82
27.2671	542.72
27.2815	497.32
27.2960	478.26
27.3104	516.23
27.3249	515.22
27.3393	528.83
27.3537	538.66
27.3682	515.97
27.3826	510.12
27.3971	492.88
27.4115	517.40
27.4259	514.08
27.4404	505.73
27.4548	508.10
27.4693	495.84
27.4837	522.16
27.4981	531.22
27.5126	525.34
27.5270	540.38
27.5415	510.95
27.5559	527.04
27.5703	493.13
27.5848	509.55
27.5992	522.93
27.6137	506.94
27.6281	491.20
27.6425	492.00
27.6570	544.51
27.6714	506.68
27.6859	488.43
27.7003	488.67
27.7147	534.90
27.7292	532.69
27.7436	527.21
27.7581	520.83
27.7725	519.53
27.7869	539.65
27.8014	537.05
27.8158	507.79
27.8303	550.95
27.8447	499.35
27.8591	506.67
27.8736	490.71
27.8880	535.11
27.9025	550.77
27.9169	546.65
27.9313	519.13
27.9458	530.92
27.9602	467.48
27.9747	520.73
27.9891	543.26
28.0035	536.88
28.0180	505.89
28.0324	509.18
28.0469	534.13
28.0613	541.17
28.0757	530.30
28.0902	527.06
28.1046	495.54
28.1191	507.52
28.1335	539.78
28.1479	534.20
28.1624	513.07
28.1768	515.52
28.1913	518.61
28.2057	504.57
28.2201	522.17
28.2346	528.34
28.2490	521.22
28.2635	512.17
28.2779	499.01
28.2923	548.99
28.3068	514.69
28.3212	528.49
28.3357	510.35
28.3501	542.26
28.3645	529.94
28.3790	508.83
28.3934	514.45
28.4079	503.64
28.4223	496.52
28.4367	527.58
28.4512	498.55
28.4656	490.43
28.4801	525.73
28.4945	504.71
28.5089	533.46
28.5234	515.61
28.5378	499.18
28.5523	498.03
28.5667	510.75
28.5811	561.43
28.5956	494.23
28.6100	500.41
28.6245	481.41
28.6389	527.98
28.6533	513.34
28.6678	505.77
28.6822	499.21
28.6967	535.66
28.7111	530.78
28.7255	536.92
28.7400	530.60
28.7544	533.52
28.7689	494.41
28.7833	482.00
28.7977	494.32
28.8122	506.48
28.8266	503.29
28.8411	551.62
28.8555	519.27
28.8699	523.66
28.8844	516.44
28.8988	523.13
28.9133	529.29
28.9277	492.40
28.9421	536.45
28.9566	515.06
28.9710	474.02
28.9855	482.89
28.9999	489.00
29.0143	525.03
29.0288	523.56
29.0432	517.41
29.0577	497.75
29.0721	494.33
29.0865	519.71
29.1010	519.16
29.1154	499.63
29.1299	512.50
29.1443	524.72
29.1587	484.64
29.1732	515.87
29.1876	511.44
29.2021	521.53
29.2165	517.27
29.2309	481.09
29.2454	513.86
29.2598	470.66
29.2743	491.71
29.2887	508.57
29.3031	527.81
29.3176	499.41
29.3320	506.24
29.3465	517.14
29.3609	537.78
29.3753	497.80
29.3898	502.87
29.4042	503.46
29.4187	510.87
29.4331	525.97
29.4475	541.25
29.4620	528.41
29.4764	513.02
29.4909	504.55
29.5053	455.53
29.5197	467.76
29.5342	480.75
29.5486	517.22
29.5631	477.22
29.5775	498.64
29.5919	517.18
29.6064	483.37
29.6208	507.50
29.6353	531.67
29.6497	523.12
29.6641	490.94
29.6786	488.45
29.6930	502.00
29.7075	536.13
29.7219	507.97
29.7363	525.50
29.7508	490.94
29.7652	514.44
29.7797	477.43
29.7941	469.76
29.8085	507.21
29.8230	534.80
29.8374	541.78
29.8519	503.60
29.8663	505.11
29.8807	531.18
29.8952	487.21
29.9096	520.02
29.9241	501.20
29.9385	504.98
29.9529	499.10
29.9674	514.08
29.9818	466.55
29.9963	509.47
30.0107	517.25
30.0251	513.00
30.0396	454.62
30.0540	478.10
30.0685	480.77
30.0829	506.01
30.0973	539.73
30.1118	530.64
30.1262	532.55
30.1407	488.25
30.1551	504.73
30.1695	520.62
30.1840	535.78
30.1984	476.83
30.2129	481.05
30.2273	484.88
30.2417	522.80
30.2562	501.56
30.2706	484.50
30.2851	530.54
30.2995	530.60
30.3139	550.92
30.3284	539.99
30.3428	533.91
30.3573	488.32
30.3717	531.82
30.3861	513.04
30.4006	483.28
30.4150	509.50
30.4295	537.20
30.4439	532.93
30.4583	550.80
30.4728	566.36
30.4872	588.31
30.5017	581.63
30.5161	627.84
30.5305	677.22
30.5450	678.38
30.5594	709.76
30.5739	721.85
30.5883	734.85
30.6028	755.40
30.6172	720.09
30.6316	688.08
30.6461	689.38
30.6605	677.50
30.6750	628.15
30.6894	616.88
30.7038	606.55
30.7183	539.50
30.7327	523.14
30.7472	528.41
30.7616	515.85
30.7760	520.78
30.7905	546.42
30.8049	517.21
30.8194	501.19
30.8338	525.25
30.8482	501.21
30.8627	532.31
30.8771	515.66
30.8916	499.04
30.9060	527.69
30.9204	517.60
30.9349	528.96
30.9493	494.92
30.9638	500.61
30.9782	481.33
30.9926	482.87
31.0071	488.76
31.0215	510.16
31.0360	523.05
31.0504	508.53
31.0648	494.10
31.0793	492.34
31.0937	508.60
31.1082	489.81
31.1226	516.01
31.1370	512.41
31.1515	479.48
31.1659	509.09
31.1804	539.59
31.1948	534.29
31.2092	520.12
31.2237	511.98
31.2381	531.34
31.2526	533.12
31.2670	529.79
31.2814	516.33
31.2959	526.27
31.3103	535.64
31.3248	539.73
31.3392	541.35
31.3536	534.22
31.3681	539.04
31.3825	548.55
31.3970	509.01
31.4114	522.99
31.4258	533.46
31.4403	533.96
31.4547	510.94
31.4692	513.30
31.4836	520.75
31.4980	464.41
31.5125	464.30
31.5269	510.28
31.5414	504.49
31.5558	515.31
31.5702	488.05
31.5847	489.00
31.5991	509.31
31.6136	514.24
31.6280	515.17
31.6424	480.16
31.6569	483.51
31.6713	483.08
31.6858	515.88
31.7002	496.54
31.7146	502.22
31.7291	480.26
31.7435	494.45
31.7580	515.99
31.7724	502.88
31.7868	526.28
31.8013	491.82
31.8157	516.79
31.8302	500.69
31.8446	475.93
31.8590	520.53
31.8735	525.19
31.8879	499.25
31.9024	532.92
31.9168	543.15
31.9312	514.09
31.9457	519.86
31.9601	525.65
31.9746	511.90
31.9890	519.20
32.0034	510.94
32.0179	521.11
32.0323	508.57
32.0468	497.79
32.0612	545.70
32.0756	528.06
32.0901	513.51
32.1045	505.03
32.1190	518.63
32.1334	510.24
32.1478	501.51
32.1623	507.69
32.1767	512.85
32.1912	483.73
32.2056	475.04
32.2200	491.14
32.2345	496.25
32.2489	487.74
32.2634	519.79
32.2778	511.92
32.2922	493.72
32.3067	479.81
32.3211	512.81
32.3356	521.09
32.3500	532.94
32.3644	545.89
32.3789	509.13
32.3933	514.21
32.4078	517.83
32.4222	533.13
32.4366	494.46
32.4511	506.87
32.4655	503.76
32.4800	487.99
32.4944	480.33
32.5088	531.53
32.5233	487.48
32.5377	469.01
32.5522	501.91
32.5666	535.39
32.5810	534.93
32.5955	528.68
32.6099	498.19
32.6244	487.89
32.6388	530.50
32.6532	524.31
32.6677	503.44
32.6821	504.17
32.6966	509.83
32.7110	513.82
32.7254	480.72
32.7399	496.66
32.7543	533.16
32.7688	511.73
32.7832	506.60
32.7976	474.01
32.8121	542.20
32.8265	531.78
32.8410	505.90
32.8554	491.87
32.8698	514.96
32.8843	508.55
32.8987	533.20
32.9132	472.07
32.9276	503.78
32.9420	531.31
32.9565	506.64
32.9709	481.77
32.9854	488.05
32.9998	493.89
33.0142	488.36
33.0287	518.56
33.0431	535.20
33.0576	536.43
33.0720	532.63
33.0864	496.21
33.1009	515.92
33.1153	521.46
33.1298	504.37
33.1442	523.48
33.1586	538.49
33.1731	487.71
33.1875	457.26
33.2020	448.29
33.2164	482.83
33.2308	499.81
33.2453	504.94
33.2597	473.01
33.2742	478.06
33.2886	502.93
33.3030	504.47
33.3175	489.50
33.3319	533.67
33.3464	526.21
33.3608	511.45
33.3752	490.30
33.3897	497.25
33.4041	509.90
33.4186	508.52
33.4330	526.49
33.4474	506.89
33.4619	484.84
33.4763	510.24
33.4908	547.29
33.5052	506.45
33.5196	502.60
33.5341	504.28
33.5485	521.08
33.5630	500.99
33.5774	494.16
33.5918	497.55
33.6063	495.10
33.6207	525.88
33.6352	493.78
33.6496	499.88
33.6640	489.75
33.6785	518.60
33.6929	493.46
33.7074	507.42
33.7218	540.34
33.7362	501.03
33.7507	511.73
33.7651	493.10
33.7796	511.00
33.7940	495.85
33.8084	490.10
33.8229	505.60
33.8373	505.89
33.8518	472.46
33.8662	509.71
33.8806	510.25
33.8951	529.54
33.9095	519.70
33.9240	477.75
33.9384	514.23
33.9528	494.49
33.9673	501.15
33.9817	501.64
33.9962	530.28
34.0106	520.01
34.0250	481.92
34.0395	450.78
34.0539	449.22
34.0684	515.69
34.0828	512.81
34.0972	524.35
34.1117	469.32
34.1261	468.09
34.1406	504.22
34.1550	493.87
34.1694	486.25
34.1839	495.27
34.1983	470.54
34.2128	487.50
34.2272	488.91
34.2417	484.03
34.2561	469.98
34.2705	522.61
34.2850	491.58
34.2994	494.20
34.3139	493.49
34.3283	503.69
34.3427	503.99
34.3572	539.28
34.3716	497.58
34.3861	490.74
34.4005	500.39
34.4149	482.92
34.4294	494.62
34.4438	518.00
34.4583	484.15
34.4727	493.63
34.4871	521.34
34.5016	523.65
34.5160	494.21
34.5305	512.66
34.5449	493.64
34.5593	474.12
34.5738	494.67
34.5882	503.00
34.6027	496.18
34.6171	493.88
34.6315	485.52
34.6460	483.45
34.6604	490.77
34.6749	493.94
34.6893	497.41
34.7037	510.48
34.7182	508.05
34.7326	510.16
34.7471	515.46
34.7615	506.72
34.7759	528.14
34.7904	523.81
34.8048	521.02
34.8193	532.15
34.8337	493.61
34.8481	500.24
34.8626	525.62
34.8770	503.49
34.8915	510.27
34.9059	555.03
34.9203	509.43
34.9348	477.41
34.9492	473.16
34.9637	502.76
34.9781	507.88
34.9925	490.39
35.0070	492.94
35.0214	501.07
35.0359	509.93
35.0503	524.32
35.0647	527.70
35.0792	516.26
35.0936	526.63
35.1081	493.76
35.1225	518.59
35.1369	528.16
35.1514	503.96
35.1658	520.24
35.1803	509.67
35.1947	497.81
35.2091	508.35
35.2236	506.83
35.2380	519.47
35.2525	482.51
35.2669	478.32
35.2813	482.52
35.2958	504.45
35.3102	489.84
35.3247	505.00
35.3391	507.24
35.3535	515.87
35.3680	505.49
35.3824	557.60
35.3969	494.85
35.4113	514.81
35.4257	547.80
35.4402	529.85
35.4546	513.06
35.4691	540.46
35.4835	519.17
35.4979	519.44
35.5124	519.04
35.5268	540.44
35.5413	546.85
35.5557	537.38
35.5701	530.92
35.5846	527.63
35.5990	520.80
35.6135	528.89
35.6279	543.84
35.6423	559.54
35.6568	542.62
35.6712	551.69
35.6857	589.79
35.7001	680.27
35.7145	756.90
35.7290	731.61
35.7434	644.21
35.7579	656.28
35.7723	621.69
35.7867	672.24
35.8012	760.41
35.8156	756.26
35.8301	712.53
35.8445	689.61
35.8589	809.74
35.8734	891.80
35.8878	963.16
35.9023	1113.79
35.9167	1163.72
35.9311	1254.39
35.9456	1593.10
35.9600	1834.22
35.9745	2000.44
35.9889	2207.12
36.0033	2616.68
36.0178	3018.42
36.0322	3076.91
36.0467	2764.95
36.0611	2163.73
36.0755	2009.98
36.0900	2397.50
36.1044	2548.40
36.1189	1918.05
36.1333	1372.85
36.1477	1035.01
36.1622	996.07
36.1766	965.43
36.1911	893.39
36.2055	784.37
36.2199	733.67
36.2344	705.85
36.2488	661.30
36.2633	558.93
36.2777	585.02
36.2921	570.44
36.3066	542.84
36.3210	553.46
36.3355	573.03
36.3499	554.95
36.3643	544.86
36.3788	521.50
36.3932	524.91
36.4077	502.11
36.4221	543.32
36.4365	541.14
36.4510	543.29
36.4654	535.95
36.4799	531.65
36.4943	543.19
36.5087	543.94
36.5232	545.06
36.5376	508.28
36.5521	540.41
36.5665	530.44
36.5809	536.26
36.5954	522.94
36.6098	519.40
36.6243	497.50
36.6387	522.96
36.6531	518.38
36.6676	493.18
36.6820	503.58
36.6965	547.61
36.7109	520.84
36.7253	525.39
36.7398	513.72
36.7542	545.38
36.7687	541.76
36.7831	518.05
36.7975	532.94
36.8120	586.33
36.8264	599.86
36.8409	595.62
36.8553	561.73
36.8697	550.35
36.8842	608.07
36.8986	576.95
36.9131	593.55
36.9275	571.49
36.9419	602.32
36.9564	571.47
36.9708	572.63
36.9853	558.62
36.9997	563.87
37.0141	521.07
37.0286	522.07
37.0430	522.83
37.0575	532.01
37.0719	489.02
37.0863	519.82
37.1008	544.81
37.1152	526.46
37.1297	523.62
37.1441	522.56
37.1585	501.14
37.1730	499.16
37.1874	495.49
37.2019	497.80
37.2163	502.64
37.2307	508.25
37.2452	474.56
37.2596	498.14
37.2741	503.08
37.2885	515.17
37.3029	490.67
37.3174	522.18
37.3318	510.89
37.3463	480.68
37.3607	442.74
37.3751	476.82
37.3896	493.60
37.4040	480.57
37.4185	516.50
37.4329	520.56
37.4473	482.65
37.4618	504.08
37.4762	505.48
37.4907	512.96
37.5051	519.31
37.5195	513.29
37.5340	524.07
37.5484	499.46
37.5629	524.07
37.5773	507.93
37.5917	500.08
37.6062	497.44
37.6206	477.01
37.6351	461.60
37.6495	492.24
37.6639	493.52
37.6784	485.32
37.6928	516.28
37.7073	506.39
37.7217	496.81
37.7361	452.60
37.7506	499.88
37.7650	511.37
37.7795	523.02
37.7939	530.85
37.8083	517.50
37.8228	525.26
37.8372	469.57
37.8517	463.23
37.8661	506.43
37.8805	510.18
37.8950	519.92
37.9094	531.26
37.9239	486.91
37.9383	499.36
37.9528	504.36
37.9672	494.26
37.9816	457.23
37.9961	487.46
38.0105	512.49
38.0250	502.91
38.0394	514.74
38.0538	511.43
38.0683	483.38
38.0827	522.90
38.0972	512.12
38.1116	528.58
38.1260	522.52
38.1405	530.47
38.1549	481.29
38.1694	478.63
38.1838	464.11
38.1982	502.70
38.2127	509.88
38.2271	530.36
38.2416	528.58
38.2560	502.64
38.2704	496.17
38.2849	519.91
38.2993	528.36
38.3138	530.92
38.3282	532.47
38.3426	504.36
38.3571	501.50
38.3715	493.34
38.3860	521.99
38.4004	553.07
38.4148	526.80
38.4293	561.55
38.4437	572.41
38.4582	601.53
38.4726	623.12
38.4870	655.17
38.5015	733.49
38.5159	764.28
38.5304	794.94
38.5448	821.24
38.5592	764.49
38.5737	766.79
38.5881	760.12
38.6026	739.21
38.6170	712.79
38.6314	707.14
38.6459	652.73
38.6603	638.89
38.6748	611.78
38.6892	581.32
38.7036	541.16
38.7181	522.23
38.7325	515.33
38.7470	535.80
38.7614	525.82
38.7758	478.69
38.7903	514.36
38.8047	543.78
38.8192	520.30
38.8336	507.04
38.8480	500.22
38.8625	521.90
38.8769	518.77
38.8914	501.49
38.9058	505.46
38.9202	517.23
38.9347	498.68
38.9491	516.56
38.9636	530.76
38.9780	522.62
38.9924	531.41
39.0069	499.67
39.0213	507.31
39.0358	491.09
39.0502	513.47
39.0646	529.52
39.0791	511.59
39.0935	515.33
39.1080	508.61
39.1224	505.49
39.1368	499.40
39.1513	497.70
39.1657	504.36
39.1802	457.48
39.1946	453.63
39.2090	471.45
39.2235	468.99
39.2379	502.35
39.2524	496.99
39.2668	489.37
39.2812	518.29
39.2957	489.45
39.3101	507.05
39.3246	531.11
39.3390	539.98
39.3534	505.15
39.3679	527.32
39.3823	518.54
39.3968	485.68
39.4112	492.94
39.4256	504.40
39.4401	513.93
39.4545	544.21
39.4690	525.87
39.4834	526.92
39.4978	508.59
39.5123	504.87
39.5267	488.15
39.5412	512.68
39.5556	513.47
39.5700	513.26
39.5845	493.91
39.5989	491.16
39.6134	521.77
39.6278	485.68
39.6422	475.44
39.6567	492.06
39.6711	474.17
39.6856	489.55
39.7000	495.13
39.7144	523.68
39.7289	512.49
39.7433	504.08
39.7578	506.35
39.7722	531.60
39.7866	517.67
39.8011	500.07
39.8155	515.77
39.8300	504.78
39.8444	475.17
39.8588	507.03
39.8733	520.03
39.8877	507.47
39.9022	518.59
39.9166	500.33
39.9310	504.08
39.9455	514.83
39.9599	486.07
39.9744	476.11
39.9888	474.88
40.0032	490.54
40.0177	463.96
40.0321	482.43
40.0466	487.52
40.0610	501.88
40.0754	508.93
40.0899	483.80
40.1043	492.37
40.1188	522.60
40.1332	527.37
40.1476	501.73
40.1621	484.62
40.1765	493.03
40.1910	491.86
40.2054	516.50
40.2198	490.27
40.2343	507.54
40.2487	500.82
40.2632	472.23
40.2776	476.84
40.2920	506.79
40.3065	488.94
40.3209	483.55
40.3354	483.07
40.3498	488.53
40.3642	491.74
40.3787	506.46
40.3931	498.79
40.4076	510.16
40.4220	501.89
40.4364	479.15
40.4509	486.56
40.4653	497.29
40.4798	512.80
40.4942	500.29
40.5086	449.87
40.5231	469.35
40.5375	504.72
40.5520	458.82
40.5664	487.98
40.5808	497.80
40.5953	482.30
40.6097	492.83
40.6242	482.86
40.6386	527.41
40.6530	508.17
40.6675	516.44
40.6819	497.41
40.6964	490.39
40.7108	504.10
40.7252	461.95
40.7397	474.54
40.7541	497.20
40.7686	469.82
40.7830	481.94
40.7974	495.06
40.8119	517.23
40.8263	500.43
40.8408	479.14
40.8552	501.54
40.8696	496.39
40.8841	488.22
40.8985	489.28
40.9130	496.94
40.9274	495.94
40.9418	505.00
40.9563	507.72
40.9707	513.97
40.9852	506.49
40.9996	510.93
41.0140	495.03
41.0285	486.16
41.0429	527.26
41.0574	531.70
41.0718	478.41
41.0862	495.96
41.1007	470.11
41.1151	509.76
41.1296	505.07
41.1440	485.48
41.1584	512.96
41.1729	507.73
41.1873	480.40
41.2018	484.52
41.2162	511.71
41.2306	518.05
41.2451	527.24
41.2595	505.21
41.2740	514.86
41.2884	464.75
41.3028	467.60
41.3173	490.08
41.3317	529.28
41.3462	487.03
41.3606	503.97
41.3750	508.22
41.3895	490.00
41.4039	480.91
41.4184	536.85
41.4328	529.57
41.4472	489.28
41.4617	524.90
41.4761	527.32
41.4906	491.57
41.5050	523.35
41.5194	518.20
41.5339	485.96
41.5483	500.04
41.5628	492.89
41.5772	504.26
41.5916	481.56
41.6061	470.79
41.6205	501.40
41.6350	505.84
41.6494	494.45
41.6639	502.64
41.6783	517.91
41.6927	499.91
41.7072	530.50
41.7216	529.60
41.7361	486.94
41.7505	501.44
41.7649	488.19
41.7794	501.67
41.7938	489.34
41.8083	498.36
41.8227	543.54
41.8371	516.12
41.8516	522.35
41.8660	563.11
41.8805	562.61
41.8949	539.94
41.9093	553.33
41.9238	546.37
41.9382	533.03
41.9527	574.25
41.9671	563.19
41.9815	562.89
41.9960	581.95
42.0104	565.75
42.0249	558.36
42.0393	562.50
42.0537	552.30
42.0682	581.04
42.0826	604.82
42.0971	621.82
42.1115	597.26
42.1259	603.21
42.1404	577.58
42.1548	602.78
42.1693	674.99
42.1837	703.64
42.1981	767.90
42.2126	804.33
42.2270	934.76
42.2415	1063.24
42.2559	1161.38
42.2703	1344.85
42.2848	1458.30
42.2992	1582.15
42.3137	1641.29
42.3281	1595.93
42.3425	1479.58
42.3570	1430.95
42.3714	1358.37
42.3859	1303.98
42.4003	1310.96
42.4147	1335.02
42.4292	1328.16
42.4436	1117.66
42.4581	1060.89
42.4725	912.47
42.4869	803.41
42.5014	769.21
42.5158	698.85
42.5303	646.14
42.5447	613.11
42.5591	634.00
42.5736	596.07
42.5880	592.48
42.6025	560.83
42.6169	544.36
42.6313	568.97
42.6458	555.01
42.6602	523.22
42.6747	528.31
42.6891	512.53
42.7035	517.95
42.7180	524.37
42.7324	484.11
42.7469	494.78
42.7613	479.79
42.7757	494.90
42.7902	501.45
42.8046	502.75
42.8191	517.07
42.8335	502.87
42.8479	534.69
42.8624	514.65
42.8768	536.44
42.8913	491.88
42.9057	545.12
42.9201	521.25
42.9346	504.40
42.9490	533.62
42.9635	548.50
42.9779	537.07
42.9923	519.19
43.0068	538.92
43.0212	526.18
43.0357	518.47
43.0501	506.88
43.0645	512.37
43.0790	528.73
43.0934	501.35
43.1079	506.06
43.1223	517.56
43.1367	525.21
43.1512	511.95
43.1656	522.38
43.1801	542.36
43.1945	519.31
43.2089	513.56
43.2234	525.78
43.2378	544.98
43.2523	538.57
43.2667	529.74
43.2811	508.33
43.2956	500.48
43.3100	500.46
43.3245	539.38
43.3389	562.89
43.3533	561.57
43.3678	535.90
43.3822	534.01
43.3967	520.58
43.4111	507.73
43.4255	520.59
43.4400	527.47
43.4544	517.05
43.4689	540.52
43.4833	511.07
43.4977	511.29
43.5122	538.55
43.5266	530.18
43.5411	527.49
43.5555	506.40
43.5699	477.97
43.5844	527.67
43.5988	539.45
43.6133	537.18
43.6277	524.94
43.6421	550.01
43.6566	546.72
43.6710	565.09
43.6855	564.81
43.6999	619.16
43.7143	667.51
43.7288	652.75
43.7432	670.75
43.7577	673.74
43.7721	658.84
43.7865	672.58
43.8010	648.49
43.8154	625.58
43.8299	613.22
43.8443	614.46
43.8587	606.12
43.8732	596.79
43.8876	572.24
43.9021	575.57
43.9165	600.13
43.9309	576.75
43.9454	539.90
43.9598	491.07
43.9743	510.70
43.9887	507.94
44.0031	490.75
44.0176	484.11
44.0320	503.03
44.0465	517.45
44.0609	488.12
44.0753	491.44
44.0898	510.77
44.1042	507.17
44.1187	538.15
44.1331	522.94
44.1475	513.57
44.1620	515.01
44.1764	500.74
44.1909	507.83
44.2053	528.93
44.2197	519.35
44.2342	543.08
44.2486	511.06
44.2631	523.83
44.2775	535.63
44.2919	529.22
44.3064	513.43
44.3208	542.23
44.3353	560.12
44.3497	534.20
44.3641	514.39
44.3786	519.00
44.3930	534.10
44.4075	544.73
44.4219	575.91
44.4363	588.04
44.4508	554.29
44.4652	587.37
44.4797	587.16
44.4941	566.08
44.5085	538.06
44.5230	547.73
44.5374	567.74
44.5519	598.55
44.5663	575.38
44.5807	586.28
44.5952	587.22
44.6096	566.94
44.6241	580.73
44.6385	584.02
44.6529	550.82
44.6674	576.50
44.6818	583.05
44.6963	620.76
44.7107	678.96
44.7251	721.39
44.7396	726.73
44.7540	826.74
44.7685	816.41
44.7829	866.54
44.7973	854.80
44.8118	836.03
44.8262	786.03
44.8407	791.19
44.8551	733.49
44.8695	715.81
44.8840	730.68
44.8984	753.46
44.9129	740.52
44.9273	677.54
44.9417	694.44
44.9562	638.30
44.9706	551.28
44.9851	535.87
44.9995	547.16
45.0139	535.18
45.0284	538.03
45.0428	500.80
45.0573	473.71
45.0717	522.92
45.0861	501.41
45.1006	547.13
45.1150	546.58
45.1295	530.75
45.1439	502.78
45.1583	502.57
45.1728	517.23
45.1872	521.55
45.2017	529.23
45.2161	532.06
45.2305	539.91
45.2450	550.37
45.2594	531.25
45.2739	509.64
45.2883	519.90
45.3028	468.80
45.3172	517.69
45.3316	546.06
45.3461	507.40
45.3605	513.63
45.3750	517.11
45.3894	495.65
45.4038	481.47
45.4183	517.20
45.4327	506.89
45.4472	494.70
45.4616	483.42
45.4760	509.63
45.4905	483.10
45.5049	489.05
45.5194	513.30
45.5338	486.98
45.5482	530.73
45.5627	544.28
45.5771	522.37
45.5916	516.43
45.6060	517.73
45.6204	496.73
45.6349	515.11
45.6493	518.82
45.6638	504.60
45.6782	526.37
45.6926	501.52
45.7071	519.87
45.7215	519.64
45.7360	490.94
45.7504	548.81
45.7648	506.82
45.7793	527.39
45.7937	503.87
45.8082	489.00
45.8226	491.03
45.8370	490.22
45.8515	507.29
45.8659	501.42
45.8804	520.06
45.8948	494.48
45.9092	486.94
45.9237	480.01
45.9381	492.59
45.9526	482.70
45.9670	511.37
45.9814	467.78
45.9959	522.65
46.0103	496.74
46.0248	518.59
46.0392	521.69
46.0536	526.63
46.0681	529.61
46.0825	500.38
46.0970	482.93
46.1114	483.21
46.1258	534.16
46.1403	506.39
46.1547	519.53
46.1692	525.13
46.1836	461.70
46.1980	491.33
46.2125	503.09
46.2269	493.75
46.2414	472.68
46.2558	494.13
46.2702	513.15
46.2847	499.54
46.2991	501.30
46.3136	499.74
46.3280	471.24
46.3424	503.41
46.3569	497.96
46.3713	508.07
46.3858	499.51
46.4002	470.84
46.4146	467.06
46.4291	521.65
46.4435	501.61
46.4580	504.35
46.4724	499.31
46.4868	501.49
46.5013	487.45
46.5157	493.94
46.5302	497.92
46.5446	473.67
46.5590	489.15
46.5735	454.69
46.5879	464.01
46.6024	480.45
46.6168	493.60
46.6312	514.21
46.6457	510.94
46.6601	494.68
46.6746	486.63
46.6890	475.04
46.7034	518.43
46.7179	526.65
46.7323	492.77
46.7468	511.45
46.7612	500.92
46.7756	530.15
46.7901	499.96
46.8045	520.38
46.8190	524.13
46.8334	506.62
46.8478	485.52
46.8623	504.14
46.8767	515.97
46.8912	499.20
46.9056	547.00
46.9200	502.29
46.9345	494.73
46.9489	485.00
46.9634	507.61
46.9778	517.68
46.9922	511.35
47.0067	503.81
47.0211	491.81
47.0356	492.22
47.0500	523.69
47.0644	538.21
47.0789	529.46
47.0933	545.33
47.1078	531.42
47.1222	549.18
47.1366	515.65
47.1511	501.69
47.1655	530.44
47.1800	538.81
47.1944	548.94
47.2088	513.24
47.2233	486.97
47.2377	519.06
47.2522	517.03
47.2666	489.95
47.2810	505.65
47.2955	486.95
47.3099	488.38
47.3244	532.33
47.3388	527.89
47.3532	503.90
47.3677	480.20
47.3821	501.10
47.3966	487.62
47.4110	513.53
47.4254	512.61
47.4399	508.64
47.4543	465.03
47.4688	498.43
47.4832	491.82
47.4976	492.28
47.5121	501.12
47.5265	517.79
47.5410	508.36
47.5554	523.06
47.5698	486.34
47.5843	489.74
47.5987	515.12
47.6132	535.44
47.6276	504.52
47.6420	498.48
47.6565	513.29
47.6709	498.75
47.6854	496.84
47.6998	518.60
47.7142	494.31
47.7287	466.68
47.7431	466.22
47.7576	495.48
47.7720	515.09
47.7864	519.90
47.8009	519.96
47.8153	517.29
47.8298	479.59
47.8442	534.15
47.8586	531.18
47.8731	556.48
47.8875	491.98
47.9020	504.04
47.9164	547.08
47.9308	515.77
47.9453	517.50
47.9597	537.01
47.9742	541.49
47.9886	508.29
48.0030	504.42
48.0175	497.06
48.0319	513.65
48.0464	513.90
48.0608	493.76
48.0752	489.22
48.0897	512.20
48.1041	478.78
48.1186	548.05
48.1330	538.68
48.1474	506.55
48.1619	519.64
48.1763	498.31
48.1908	482.06
48.2052	471.52
48.2196	494.47
48.2341	478.47
48.2485	507.15
48.2630	482.82
48.2774	480.38
48.2918	509.97
48.3063	495.40
48.3207	491.57
48.3352	532.04
48.3496	499.73
48.3640	511.97
48.3785	514.13
48.3929	482.86
48.4074	518.30
48.4218	505.29
48.4362	526.82
48.4507	515.64
48.4651	527.79
48.4796	530.09
48.4940	516.48
48.5084	494.01
48.5229	519.88
48.5373	515.67
48.5518	489.96
48.5662	532.52
48.5806	504.52
48.5951	539.82
48.6095	509.09
48.6240	519.09
48.6384	538.97
48.6528	524.76
48.6673	531.37
48.6817	523.13
48.6962	530.53
48.7106	548.33
48.7250	518.87
48.7395	514.89
48.7539	544.87
48.7684	522.25
48.7828	545.31
48.7972	509.60
48.8117	572.26
48.8261	541.85
48.8406	552.12
48.8550	532.00
48.8694	543.64
48.8839	533.05
48.8983	557.20
48.9128	567.37
48.9272	533.49
48.9416	565.44
48.9561	553.28
48.9705	616.94
48.9850	549.66
48.9994	572.59
49.0139	613.76
49.0283	628.48
49.0427	590.20
49.0572	634.77
49.0716	651.25
49.0861	679.53
49.1005	678.50
49.1149	706.58
49.1294	738.02
49.1438	738.22
49.1583	794.77
49.1727	881.02
49.1871	926.71
49.2016	997.58
49.2160	1058.29
49.2305	1148.24
49.2449	1237.35
49.2593	1259.34
49.2738	1386.22
49.2882	1523.78
49.3027	1625.75
49.3171	1684.74
49.3315	1750.20
49.3460	1794.23
49.3604	1871.90
49.3749	1829.58
49.3893	1792.06
49.4037	1798.95
49.4182	1831.84
49.4326	1827.32
49.4471	1692.01
49.4615	1580.96
49.4759	1574.23
49.4904	1510.84
49.5048	1380.72
49.5193	1302.58
49.5337	1241.01
49.5481	1210.75
49.5626	1096.10
49.5770	1056.52
49.5915	967.34
49.6059	920.09
49.6203	853.25
49.6348	857.35
49.6492	773.90
49.6637	743.75
49.6781	684.24
49.6925	666.86
49.7070	697.20
49.7214	635.98
49.7359	615.29
49.7503	621.59
49.7647	581.80
49.7792	590.17
49.7936	592.54
49.8081	566.73
49.8225	575.28
49.8369	568.45
49.8514	536.29
49.8658	584.17
49.8803	565.74
49.8947	543.72
49.9091	542.35
49.9236	530.72
49.9380	535.80
49.9525	557.20
49.9669	531.17
49.9813	527.18
49.9958	535.25
50.0102	530.52
50.0247	543.93
50.0391	516.97
50.0535	524.14
50.0680	502.59
50.0824	516.94
50.0969	527.93
50.1113	509.40
50.1257	539.63
50.1402	509.13
50.1546	537.54
50.1691	521.97
50.1835	522.69
50.1979	494.71
50.2124	512.97
50.2268	499.92
50.2413	494.68
50.2557	502.31
50.2701	532.16
50.2846	512.86
50.2990	485.57
50.3135	498.68
50.3279	500.58
50.3423	507.88
50.3568	506.82
50.3712	492.49
50.3857	498.61
50.4001	503.66
50.4145	493.42
50.4290	512.62
50.4434	513.07
50.4579	513.36
50.4723	557.47
50.4867	538.78
50.5012	526.93
50.5156	507.33
50.5301	515.94
50.5445	486.94
50.5589	515.09
50.5734	507.59
50.5878	459.34
50.6023	473.81
50.6167	519.28
50.6311	517.17
50.6456	485.37
50.6600	474.02
50.6745	469.39
50.6889	473.78
50.7033	502.48
50.7178	514.30
50.7322	503.58
50.7467	487.60
50.7611	509.31
50.7755	515.24
50.7900	497.72
50.8044	502.94
50.8189	508.17
50.8333	484.06
50.8477	500.90
50.8622	499.19
50.8766	486.78
50.8911	495.60
50.9055	534.30
50.9199	532.29
50.9344	521.23
50.9488	528.69
50.9633	525.66
50.9777	489.33
50.9921	519.01
51.0066	499.91
51.0210	516.99
51.0355	493.04
51.0499	517.01
51.0643	530.30
51.0788	486.70
51.0932	489.92
51.1077	479.11
51.1221	486.34
51.1365	541.50
51.1510	526.14
51.1654	517.42
51.1799	503.73
51.1943	485.90
51.2087	522.57
51.2232	512.49
51.2376	526.97
51.2521	478.31
51.2665	496.19
51.2809	537.52
51.2954	533.24
51.3098	528.31
51.3243	510.16
51.3387	505.60
51.3531	515.73
51.3676	499.33
51.3820	509.12
51.3965	488.63
51.4109	475.79
51.4253	493.55
51.4398	503.83
51.4542	463.47
51.4687	542.74
51.4831	536.20
51.4975	516.07
51.5120	497.63
51.5264	495.83
51.5409	506.79
51.5553	473.21
51.5697	494.54
51.5842	493.13
51.5986	488.63
51.6131	491.59
51.6275	539.24
51.6419	510.35
51.6564	513.66
51.6708	504.10
51.6853	485.10
51.6997	524.51
51.7141	521.75
51.7286	463.96
51.7430	486.84
51.7575	486.44
51.7719	509.72
51.7863	538.23
51.8008	510.18
51.8152	500.00
51.8297	495.51
51.8441	536.31
51.8585	532.74
51.8730	525.97
51.8874	479.81
51.9019	516.21
51.9163	518.78
51.9307	458.92
51.9452	490.28
51.9596	518.05
51.9741	525.56
51.9885	511.01
52.0029	515.17
52.0174	527.00
52.0318	509.29
52.0463	504.38
52.0607	508.80
52.0751	487.77
52.0896	489.80
52.1040	510.95
52.1185	503.18
52.1329	495.18
52.1473	471.47
52.1618	511.75
52.1762	501.28
52.1907	505.70
52.2051	499.34
52.2195	506.09
52.2340	531.41
52.2484	511.11
52.2629	512.67
52.2773	522.95
52.2917	525.52
52.3062	481.67
52.3206	500.16
52.3351	497.49
52.3495	503.50
52.3639	537.45
52.3784	532.91
52.3928	517.53
52.4073	511.88
52.4217	532.73
52.4361	506.11
52.4506	501.66
52.4650	543.69
52.4795	511.24
52.4939	504.46
52.5083	482.35
52.5228	491.70
52.5372	521.17
52.5517	503.90
52.5661	549.94
52.5805	491.86
52.5950	528.45
52.6094	501.55
52.6239	496.45
52.6383	517.79
52.6527	525.14
52.6672	534.32
52.6816	508.97
52.6961	487.23
52.7105	532.05
52.7250	514.63
52.7394	544.46
52.7538	529.61
52.7683	519.04
52.7827	512.82
52.7972	521.95
52.8116	491.19
52.8260	496.37
52.8405	522.57
52.8549	502.45
52.8694	513.73
52.8838	508.45
52.8982	530.28
52.9127	522.11
52.9271	510.71
52.9416	544.02
52.9560	473.50
52.9704	514.86
52.9849	521.07
52.9993	501.56
53.0138	510.96
53.0282	477.10
53.0426	532.54
53.0571	543.48
53.0715	527.68
53.0860	529.01
53.1004	498.57
53.1148	490.84
53.1293	511.31
53.1437	481.72
53.1582	512.07
53.1726	519.42
53.1870	475.97
53.2015	480.04
53.2159	495.91
53.2304	537.57
53.2448	515.95
53.2592	494.64
53.2737	498.91
53.2881	473.30
53.3026	450.93
53.3170	496.13
53.3314	470.45
53.3459	511.96
53.3603	544.02
53.3748	492.59
53.3892	477.03
53.4036	516.88
53.4181	508.18
53.4325	502.10
53.4470	509.08
53.4614	533.08
53.4758	525.55
53.4903	529.80
53.5047	514.54
53.5192	522.79
53.5336	518.40
53.5480	514.05
53.5625	525.26
53.5769	526.21
53.5914	496.40
53.6058	503.49
53.6202	528.64
53.6347	523.19
53.6491	529.25
53.6636	467.51
53.6780	489.47
53.6924	481.16
53.7069	547.55
53.7213	512.75
53.7358	485.53
53.7502	478.09
53.7646	492.53
53.7791	520.02
53.7935	532.06
53.8080	536.20
53.8224	534.11
53.8368	509.25
53.8513	503.33
53.8657	540.46
53.8802	502.57
53.8946	494.97
53.9090	524.86
53.9235	505.47
53.9379	485.17
53.9524	511.66
53.9668	503.99
53.9812	568.02
53.9957	521.43
54.0101	486.14
54.0246	486.69
54.0390	522.11
54.0534	562.47
54.0679	557.56
54.0823	563.14
54.0968	561.61
54.1112	532.83
54.1256	546.69
54.1401	517.83
54.1545	478.84
54.1690	530.62
54.1834	550.92
54.1978	588.68
54.2123	576.84
54.2267	590.15
54.2412	618.58
54.2556	625.89
54.2700	642.83
54.2845	627.13
54.2989	666.05
54.3134	631.55
54.3278	614.26
54.3422	603.97
54.3567	587.60
54.3711	571.46
54.3856	563.60
54.4000	573.99
54.4144	586.79
54.4289	615.77
54.4433	571.94
54.4578	578.16
54.4722	593.20
54.4866	553.99
54.5011	547.56
54.5155	541.75
54.5300	506.88
54.5444	535.65
54.5588	534.69
54.5733	487.98
54.5877	487.11
54.6022	497.56
54.6166	524.20
54.6310	517.51
54.6455	529.17
54.6599	529.11
54.6744	545.70
54.6888	528.48
54.7032	507.97
54.7177	517.33
54.7321	495.87
54.7466	518.04
54.7610	493.43
54.7754	521.67
54.7899	510.92
54.8043	511.56
54.8188	503.70
54.8332	501.52
54.8476	504.83
54.8621	499.54
54.8765	486.73
54.8910	512.40
54.9054	508.26
54.9198	494.26
54.9343	545.84
54.9487	498.42
54.9632	507.78
54.9776	484.01
54.9920	510.01
55.0065	479.06
55.0209	492.78
55.0354	494.80
55.0498	507.95
55.0642	529.43
55.0787	524.43
55.0931	521.95
55.1076	510.97
55.1220	537.74
55.1364	515.89
55.1509	523.91
55.1653	526.33
55.1798	528.78
55.1942	492.27
55.2086	498.91
55.2231	544.95
55.2375	527.53
55.2520	529.65
55.2664	504.35
55.2808	510.88
55.2953	502.89
55.3097	536.25
55.3242	511.40
55.3386	490.04
55.3530	517.59
55.3675	526.23
55.3819	525.85
55.3964	493.54
55.4108	501.51
55.4252	543.61
55.4397	496.34
55.4541	503.40
55.4686	507.37
55.4830	529.98
55.4974	517.82
55.5119	494.74
55.5263	519.93
55.5408	529.03
55.5552	509.56
55.5696	510.06
55.5841	496.58
55.5985	514.59
55.6130	546.10
55.6274	547.03
55.6418	505.69
55.6563	500.26
55.6707	533.83
55.6852	522.74
55.6996	511.47
55.7140	488.80
55.7285	512.60
55.7429	518.47
55.7574	495.58
55.7718	483.40
55.7862	555.63
55.8007	497.70
55.8151	492.87
55.8296	581.77
55.8440	509.15
55.8584	519.70
55.8729	518.61
55.8873	485.41
55.9018	552.46
55.9162	519.36
55.9306	515.66
55.9451	550.81
55.9595	537.66
55.9740	549.74
55.9884	518.79
56.0028	518.56
56.0173	512.51
56.0317	508.22
56.0462	517.44
56.0606	468.98
56.0750	482.66
56.0895	575.75
56.1039	502.22
56.1184	523.07
56.1328	495.60
56.1472	478.55
56.1617	503.54
56.1761	522.42
56.1906	518.23
56.2050	523.54
56.2194	499.51
56.2339	549.02
56.2483	510.54
56.2628	500.98
56.2772	522.73
56.2916	484.38
56.3061	557.41
56.3205	516.31
56.3350	532.23
56.3494	543.53
56.3639	519.34
56.3783	504.91
56.3927	488.69
56.4072	532.92
56.4216	526.07
56.4361	558.40
56.4505	518.26
56.4649	522.85
56.4794	520.87
56.4938	508.81
56.5083	511.12
56.5227	499.03
56.5371	543.60
56.5516	501.49
56.5660	491.00
56.5805	491.27
56.5949	495.38
56.6093	523.00
56.6238	492.33
56.6382	521.68
56.6527	530.25
56.6671	498.85
56.6815	510.03
56.6960	506.33
56.7104	539.32
56.7249	532.78
56.7393	517.68
56.7537	559.81
56.7682	531.91
56.7826	532.84
56.7971	520.26
56.8115	450.12
56.8259	537.37
56.8404	500.90
56.8548	514.87
56.8693	525.00
56.8837	507.13
56.8981	533.88
56.9126	534.61
56.9270	556.90
56.9415	546.49
56.9559	555.04
56.9703	519.14
56.9848	502.06
56.9992	525.02
57.0137	490.90
57.0281	582.17
57.0425	538.99
57.0570	539.85
57.0714	520.55
57.0859	496.52
57.1003	541.26
57.1147	532.45
57.1292	522.42
57.1436	507.06
57.1581	477.40
57.1725	551.08
57.1869	527.85
57.2014	507.25
57.2158	504.96
57.2303	513.95
57.2447	499.78
57.2591	517.35
57.2736	504.02
57.2880	512.18
57.3025	504.45
57.3169	504.48
57.3313	517.37
57.3458	526.46
57.3602	525.55
57.3747	533.12
57.3891	548.38
57.4035	522.87
57.4180	499.08
57.4324	585.88
57.4469	526.94
57.4613	511.78
57.4757	524.62
57.4902	557.02
57.5046	508.82
57.5191	530.78
57.5335	529.81
57.5479	532.72
57.5624	534.94
57.5768	513.36
57.5913	505.89
57.6057	556.39
57.6201	555.67
57.6346	536.28
57.6490	527.93
57.6635	515.42
57.6779	517.71
57.6923	534.40
57.7068	564.08
57.7212	555.61
57.7357	544.76
57.7501	560.38
57.7645	572.43
57.7790	604.22
57.7934	591.41
57.8079	615.02
57.8223	666.37
57.8367	692.39
57.8512	742.16
57.8656	822.97
57.8801	811.07
57.8945	774.45
57.9089	746.06
57.9234	710.47
57.9378	721.47
57.9523	643.06
57.9667	634.33
57.9811	670.89
57.9956	671.17
58.0100	653.36
58.0245	670.81
58.0389	673.26
58.0533	711.78
58.0678	677.77
58.0822	665.22
58.0967	638.23
58.1111	586.12
58.1255	631.62
58.1400	571.47
58.1544	534.15
58.1689	541.71
58.1833	553.72
58.1977	522.14
58.2122	540.43
58.2266	541.63
58.2411	540.56
58.2555	546.14
58.2699	526.06
58.2844	550.74
58.2988	539.78
58.3133	555.30
58.3277	535.75
58.3421	537.85
58.3566	556.36
58.3710	521.86
58.3855	532.49
58.3999	540.21
58.4143	537.33
58.4288	551.48
58.4432	533.54
58.4577	542.39
58.4721	540.29
58.4865	527.77
58.5010	510.62
58.5154	501.03
58.5299	527.69
58.5443	548.44
58.5587	555.97
58.5732	503.06
58.5876	520.86
58.6021	542.67
58.6165	544.17
58.6309	525.77
58.6454	498.43
58.6598	506.14
58.6743	515.04
58.6887	520.69
58.7031	536.71
58.7176	550.16
58.7320	542.02
58.7465	572.22
58.7609	528.63
58.7753	510.92
58.7898	535.50
58.8042	558.77
58.8187	548.58
58.8331	541.73
58.8475	515.63
58.8620	527.73
58.8764	532.49
58.8909	513.17
58.9053	555.23
58.9197	542.44
58.9342	509.90
58.9486	506.49
58.9631	497.42
58.9775	543.57
58.9919	587.32
59.0064	542.92
59.0208	521.37
59.0353	517.04
59.0497	543.74
59.0641	557.71
59.0786	528.99
59.0930	523.53
59.1075	496.64
59.1219	524.60
59.1363	513.28
59.1508	504.39
59.1652	553.69
59.1797	538.49
59.1941	556.63
59.2085	557.57
59.2230	535.52
59.2374	540.11
59.2519	534.30
59.2663	510.98
59.2807	564.52
59.2952	541.11
59.3096	520.45
59.3241	534.67
59.3385	582.87
59.3529	560.28
59.3674	554.82
59.3818	542.16
59.3963	572.19
59.4107	538.82
59.4251	586.52
59.4396	569.52
59.4540	550.88
59.4685	539.45
59.4829	542.74
59.4973	550.70
59.5118	549.17
59.5262	533.88
59.5407	545.23
59.5551	570.24
59.5695	533.27
59.5840	532.87
59.5984	556.18
59.6129	523.90
59.6273	529.52
59.6417	536.22
59.6562	513.66
59.6706	509.25
59.6851	528.33
59.6995	521.44
59.7139	575.20
59.7284	519.75
59.7428	508.65
59.7573	532.99
59.7717	500.13
59.7861	527.49
59.8006	506.44
59.8150	539.50
59.8295	550.60
59.8439	540.87
59.8583	519.81
59.8728	516.19
59.8872	488.38
59.9017	547.18
59.9161	548.19
59.9305	512.55
59.9450	525.07
59.9594	522.63
59.9739	527.56
59.9883	542.28
60.0027	534.10
60.0172	525.11
60.0316	506.28
60.0461	527.37
60.0605	555.28
60.0750	531.56
60.0894	553.97
60.1038	524.86
60.1183	552.35
60.1327	518.09
60.1472	519.72
60.1616	524.75
60.1760	540.85
60.1905	545.95
60.2049	528.57
60.2194	553.95
60.2338	537.18
60.2482	558.08
60.2627	548.75
60.2771	546.31
60.2916	509.96
60.3060	562.81
60.3204	518.61
60.3349	532.86
60.3493	497.44
60.3638	540.64
60.3782	570.63
60.3926	558.05
60.4071	563.02
60.4215	586.33
60.4360	564.27
60.4504	534.08
60.4648	513.63
60.4793	538.48
60.4937	539.69
60.5082	503.74
60.5226	552.85
60.5370	562.58
60.5515	544.78
60.5659	546.95
60.5804	548.59
60.5948	534.97
60.6092	531.29
60.6237	500.23
60.6381	522.57
60.6526	534.25
60.6670	550.47
60.6814	544.77
60.6959	531.27
60.7103	560.71
60.7248	539.02
60.7392	520.60
60.7536	523.88
60.7681	514.74
60.7825	544.38
60.7970	517.45
60.8114	523.79
60.8258	530.07
60.8403	548.55
60.8547	529.59
60.8692	542.66
60.8836	508.55
60.8980	570.55
60.9125	532.97
60.9269	494.46
60.9414	556.86
60.9558	533.57
60.9702	504.08
60.9847	529.37
60.9991	500.05
61.0136	526.22
61.0280	540.89
61.0424	510.42
61.0569	539.45
61.0713	557.15
61.0858	565.91
61.1002	570.26
61.1146	584.24
61.1291	572.42
61.1435	549.49
61.1580	565.91
61.1724	554.56
61.1868	548.59
61.2013	538.46
61.2157	514.10
61.2302	545.44
61.2446	545.80
61.2590	517.91
61.2735	525.80
61.2879	553.73
61.3024	533.30
61.3168	515.68
61.3312	567.28
61.3457	555.15
61.3601	540.28
61.3746	527.65
61.3890	528.77
61.4034	500.41
61.4179	523.64
61.4323	569.68
61.4468	529.41
61.4612	543.96
61.4756	536.73
61.4901	540.36
61.5045	549.76
61.5190	513.74
61.5334	535.12
61.5478	532.46
61.5623	552.51
61.5767	523.03
61.5912	516.16
61.6056	563.70
61.6200	541.79
61.6345	528.21
61.6489	541.10
61.6634	561.46
61.6778	502.52
61.6922	526.77
61.7067	544.18
61.7211	540.93
61.7356	557.55
61.7500	595.34
61.7644	544.81
61.7789	551.10
61.7933	573.24
61.8078	550.98
61.8222	537.59
61.8366	564.15
61.8511	556.60
61.8655	547.87
61.8800	549.25
61.8944	508.92
61.9088	507.00
61.9233	523.58
61.9377	530.39
61.9522	517.80
61.9666	508.57
61.9810	539.35
61.9955	571.59
62.0099	523.30
62.0244	569.90
62.0388	528.89
62.0532	533.78
62.0677	558.22
62.0821	566.31
62.0966	539.20
62.1110	551.08
62.1254	565.27
62.1399	547.41
62.1543	533.29
62.1688	558.86
62.1832	544.19
62.1976	532.16
62.2121	548.81
62.2265	558.28
62.2410	541.67
62.2554	549.79
62.2698	550.33
62.2843	562.81
62.2987	543.70
62.3132	560.83
62.3276	540.22
62.3420	579.78
62.3565	558.28
62.3709	574.75
62.3854	530.04
62.3998	547.08
62.4142	548.02
62.4287	549.04
62.4431	514.18
62.4576	553.55
62.4720	560.88
62.4864	584.97
62.5009	538.99
62.5153	537.04
62.5298	513.60
62.5442	510.98
62.5586	552.12
62.5731	559.53
62.5875	553.19
62.6020	543.10
62.6164	532.74
62.6308	531.80
62.6453	564.79
62.6597	560.52
62.6742	566.58
62.6886	526.57
62.7030	527.50
62.7175	555.52
62.7319	578.02
62.7464	554.13
62.7608	575.26
62.7752	541.59
62.7897	551.04
62.8041	568.28
62.8186	578.70
62.8330	560.32
62.8474	543.96
62.8619	520.41
62.8763	553.03
62.8908	536.59
62.9052	550.86
62.9196	570.97
62.9341	555.43
62.9485	557.44
62.9630	567.47
62.9774	560.46
62.9918	566.08
63.0063	547.98
63.0207	557.93
63.0352	591.67
63.0496	581.41
63.0640	608.65
63.0785	598.95
63.0929	608.71
63.1074	585.90
63.1218	586.78
63.1362	592.94
63.1507	562.54
63.1651	586.22
63.1796	591.38
63.1940	553.57
63.2084	556.41
63.2229	598.62
63.2373	565.11
63.2518	558.56
63.2662	552.92
63.2806	567.69
63.2951	573.99
63.3095	601.70
63.3240	587.71
63.3384	598.72
63.3528	607.75
63.3673	600.60
63.3817	616.21
63.3962	642.10
63.4106	614.02
63.4250	655.74
63.4395	633.87
63.4539	638.93
63.4684	694.25
63.4828	721.08
63.4972	785.76
63.5117	787.75
63.5261	849.08
63.5406	900.52
63.5550	974.36
63.5694	923.59
63.5839	954.28
63.5983	935.53
63.6128	893.74
63.6272	838.47
63.6416	795.81
63.6561	767.32
63.6705	729.44
63.6850	765.06
63.6994	773.61
63.7138	839.68
63.7283	847.10
63.7427	788.98
63.7572	804.52
63.7716	769.96
63.7861	719.70
63.8005	726.66
63.8149	722.78
63.8294	676.37
63.8438	644.12
63.8583	658.02
63.8727	671.26
63.8871	662.87
63.9016	664.31
63.9160	619.17
63.9305	548.81
63.9449	617.07
63.9593	600.24
63.9738	609.50
63.9882	631.25
64.0027	609.64
64.0171	609.50
64.0315	581.33
64.0460	606.76
64.0604	614.25
64.0749	579.25
64.0893	631.64
64.1037	575.76
64.1182	596.24
64.1326	577.55
64.1471	548.61
64.1615	578.54
64.1759	570.58
64.1904	578.36
64.2048	587.77
64.2193	572.00
64.2337	608.36
64.2481	624.18
64.2626	582.93
64.2770	594.02
64.2915	543.49
64.3059	587.07
64.3203	599.62
64.3348	625.79
64.3492	586.76
64.3637	598.23
64.3781	620.66
64.3925	630.84
64.4070	592.69
64.4214	620.05
64.4359	618.12
64.4503	589.22
64.4647	613.57
64.4792	607.14
64.4936	625.30
64.5081	596.02
64.5225	627.72
64.5369	609.54
64.5514	627.11
64.5658	601.62
64.5803	596.47
64.5947	638.40
64.6091	645.64
64.6236	666.25
64.6380	674.51
64.6525	662.61
64.6669	640.39
64.6813	617.22
64.6958	673.13
64.7102	715.71
64.7247	648.85
64.7391	674.31
64.7535	676.87
64.7680	706.11
64.7824	703.68
64.7969	734.13
64.8113	760.95
64.8257	835.59
64.8402	832.04
64.8546	849.10
64.8691	823.34
64.8835	825.88
64.8979	854.74
64.9124	876.21
64.9268	863.91
64.9413	901.07
64.9557	933.62
64.9701	944.06
64.9846	1036.32
64.9990	1085.81
65.0135	1233.30
65.0279	1378.45
65.0423	1657.42
65.0568	2015.79
65.0712	2524.90
65.0857	3299.24
65.1001	4210.03
65.1145	5757.89
65.1290	7769.76
65.1434	9282.19
65.1579	10662.40
65.1723	11442.65
65.1867	11184.77
65.2012	9877.48
65.2156	8412.42
65.2301	6656.00
65.2445	5278.19
65.2589	4394.71
65.2734	4033.32
65.2878	4134.83
65.3023	4750.34
65.3167	5419.05
65.3311	6290.82
65.3456	6785.93
65.3600	6697.92
65.3745	6337.72
65.3889	5353.66
65.4033	4236.90
65.4178	3405.65
65.4322	2739.02
65.4467	1998.53
65.4611	1715.94
65.4755	1523.29
65.4900	1267.09
65.5044	1155.24
65.5189	1073.95
65.5333	962.91
65.5477	885.50
65.5622	892.34
65.5766	822.93
65.5911	776.63
65.6055	782.98
65.6199	755.49
65.6344	771.82
65.6488	727.32
65.6633	734.01
65.6777	730.86
65.6921	700.30
65.7066	734.29
65.7210	730.17
65.7355	699.17
65.7499	681.11
65.7643	664.77
65.7788	663.32
65.7932	666.64
65.8077	677.72
65.8221	661.47
65.8365	658.48
65.8510	654.48
65.8654	651.07
65.8799	667.14
65.8943	661.64
65.9087	682.01
65.9232	638.78
65.9376	616.26
65.9521	589.81
65.9665	616.44
65.9809	611.72
65.9954	626.80
66.0098	613.42
66.0243	598.23
66.0387	598.46
66.0531	630.70
66.0676	655.15
66.0820	638.14
66.0965	645.57
66.1109	655.47
66.1253	633.73
66.1398	604.28
66.1542	612.34
66.1687	615.99
66.1831	617.21
66.1975	625.48
66.2120	638.06
66.2264	619.64
66.2409	616.17
66.2553	602.00
66.2697	571.67
66.2842	587.67
66.2986	593.00
66.3131	585.88
66.3275	592.97
66.3419	607.33
66.3564	633.21
66.3708	628.63
66.3853	622.87
66.3997	591.70
66.4141	577.62
66.4286	615.84
66.4430	560.90
66.4575	581.86
66.4719	599.01
66.4863	560.10
66.5008	585.55
66.5152	591.61
66.5297	623.62
66.5441	620.67
66.5585	581.43
66.5730	565.19
66.5874	586.17
66.6019	598.34
66.6163	604.69
66.6307	608.06
66.6452	596.90
66.6596	587.85
66.6741	577.75
66.6885	590.87
66.7029	588.76
66.7174	623.31
66.7318	555.55
66.7463	545.61
66.7607	572.22
66.7751	576.44
66.7896	562.50
66.8040	579.52
66.8185	620.38
66.8329	607.25
66.8473	565.52
66.8618	585.50
66.8762	564.82
66.8907	562.97
66.9051	600.70
66.9195	558.90
66.9340	546.90
66.9484	597.97
66.9629	576.20
66.9773	591.03
66.9917	605.09
67.0062	582.66
67.0206	566.72
67.0351	568.25
67.0495	575.66
67.0639	578.69
67.0784	594.24
67.0928	588.15
67.1073	569.96
67.1217	576.16
67.1361	588.02
67.1506	573.47
67.1650	539.33
67.1795	588.56
67.1939	585.16
67.2083	596.06
67.2228	557.71
67.2372	568.35
67.2517	586.37
67.2661	560.68
67.2805	587.77
67.2950	544.06
67.3094	589.32
67.3239	576.69
67.3383	576.42
67.3527	616.55
67.3672	588.56
67.3816	573.03
67.3961	551.91
67.4105	545.83
67.4250	609.35
67.4394	600.19
67.4538	571.79
67.4683	564.71
67.4827	591.51
67.4972	608.69
67.5116	603.95
67.5260	599.82
67.5405	571.10
67.5549	569.51
67.5694	559.64
67.5838	553.55
67.5982	585.23
67.6127	573.24
67.6271	588.59
67.6416	556.26
67.6560	606.43
67.6704	582.45
67.6849	553.76
67.6993	574.24
67.7138	604.39
67.7282	576.80
67.7426	556.76
67.7571	573.87
67.7715	561.38
67.7860	542.26
67.8004	575.40
67.8148	597.80
67.8293	579.37
67.8437	566.85
67.8582	582.19
67.8726	598.56
67.8870	585.83
67.9015	603.49
67.9159	553.17
67.9304	583.04
67.9448	583.42
67.9592	539.61
67.9737	565.40
67.9881	555.81
68.0026	580.79
68.0170	583.75
68.0314	621.04
68.0459	616.43
68.0603	575.49
68.0748	583.62
68.0892	578.46
68.1036	583.60
68.1181	569.16
68.1325	572.42
68.1470	559.68
68.1614	588.41
68.1758	549.93
68.1903	573.62
68.2047	522.97
68.2192	513.05
68.2336	559.14
68.2480	579.07
68.2625	555.09
68.2769	574.26
68.2914	594.26
68.3058	561.30
68.3202	562.75
68.3347	585.30
68.3491	531.60
68.3636	570.74
68.3780	555.95
68.3924	556.90
68.4069	560.32
68.4213	536.37
68.4358	549.79
68.4502	569.81
68.4646	565.46
68.4791	576.71
68.4935	555.36
68.5080	558.31
68.5224	581.04
68.5368	555.42
68.5513	526.37
68.5657	528.78
68.5802	572.11
68.5946	564.60
68.6090	581.06
68.6235	576.36
68.6379	534.17
68.6524	540.72
68.6668	607.83
68.6812	578.29
68.6957	537.72
68.7101	610.02
68.7246	562.59
68.7390	563.30
68.7534	558.47
68.7679	552.40
68.7823	571.61
68.7968	599.07
68.8112	630.02
68.8256	555.41
68.8401	562.64
68.8545	575.94
68.8690	593.47
68.8834	561.06
68.8978	573.14
68.9123	601.45
68.9267	563.02
68.9412	567.06
68.9556	597.74
68.9700	574.86
68.9845	531.29
68.9989	590.96
69.0134	603.49
69.0278	614.37
69.0422	537.42
69.0567	563.62
69.0711	610.38
69.0856	602.72
69.1000	531.76
69.1144	590.79
69.1289	559.21
69.1433	558.79
69.1578	525.19
69.1722	580.84
69.1866	584.53
69.2011	599.35
69.2155	598.77
69.2300	606.47
69.2444	590.44
69.2588	568.15
69.2733	560.75
69.2877	638.34
69.3022	555.95
69.3166	557.74
69.3310	569.19
69.3455	541.75
69.3599	578.44
69.3744	544.60
69.3888	563.57
69.4032	608.83
69.4177	580.37
69.4321	626.00
69.4466	605.41
69.4610	569.45
69.4754	590.73
69.4899	589.11
69.5043	572.72
69.5188	525.19
69.5332	539.14
69.5476	560.88
69.5621	598.40
69.5765	548.74
69.5910	542.46
69.6054	552.25
69.6198	599.31
69.6343	563.76
69.6487	575.52
69.6632	594.29
69.6776	562.53
69.6920	566.82
69.7065	631.23
69.7209	560.71
69.7354	508.26
69.7498	577.45
69.7642	552.20
69.7787	574.12
69.7931	551.76
69.8076	552.41
69.8220	577.62
69.8364	563.11
69.8509	566.93
69.8653	551.37
69.8798	563.09
69.8942	583.56
69.9086	587.11
69.9231	611.11
69.9375	624.86
69.9520	587.21
69.9664	582.21
69.9808	587.72
69.9953	576.23
70.0097	518.80
70.0242	557.13
70.0386	583.17
70.0530	614.44
70.0675	586.70
70.0819	590.65
70.0964	600.74
70.1108	567.53
70.1252	582.30
70.1397	543.41
70.1541	573.29
70.1686	562.40
70.1830	539.38
70.1974	528.54
70.2119	581.20
70.2263	544.53
70.2408	563.59
70.2552	560.97
70.2696	564.22
70.2841	528.49
70.2985	575.48
70.3130	575.87
70.3274	585.59
70.3418	664.82
70.3563	590.77
70.3707	572.63
70.3852	593.00
70.3996	603.10
70.4140	611.03
70.4285	618.20
70.4429	596.56
70.4574	571.02
70.4718	621.34
70.4862	633.09
70.5007	597.71
70.5151	593.70
70.5296	552.00
70.5440	600.30
70.5584	563.77
70.5729	575.75
70.5873	553.23
70.6018	531.64
70.6162	598.64
70.6306	619.23
70.6451	581.86
70.6595	557.75
70.6740	550.66
70.6884	563.02
70.7028	522.14
70.7173	586.39
70.7317	599.26
70.7462	589.63
70.7606	601.24
70.7750	632.27
70.7895	548.13
70.8039	536.83
70.8184	547.51
70.8328	563.56
70.8472	533.52
70.8617	599.78
70.8761	544.81
70.8906	539.30
70.9050	544.68
70.9194	544.02
70.9339	586.11
70.9483	565.49
70.9628	558.87
70.9772	558.25
70.9916	593.80
71.0061	546.76
71.0205	520.97
71.0350	558.49
71.0494	561.05
71.0638	555.27
71.0783	546.02
71.0927	599.94
71.1072	639.25
71.1216	603.27
71.1361	570.14
71.1505	602.21
71.1649	596.20
71.1794	599.72
71.1938	603.67
71.2083	573.66
71.2227	526.54
71.2371	576.66
71.2516	598.14
71.2660	552.12
71.2805	559.76
71.2949	581.83
71.3093	603.52
71.3238	573.91
71.3382	545.46
71.3527	577.56
71.3671	552.52
71.3815	552.24
71.3960	550.19
71.4104	594.00
71.4249	630.65
71.4393	614.63
71.4537	597.65
71.4682	585.87
71.4826	575.21
71.4971	603.27
71.5115	567.31
71.5259	570.84
71.5404	558.60
71.5548	524.36
71.5693	550.72
71.5837	558.69
71.5981	528.14
71.6126	517.51
71.6270	570.14
71.6415	604.00
71.6559	616.34
71.6703	632.02
71.6848	626.55
71.6992	638.29
71.7137	605.39
71.7281	571.73
71.7425	563.24
71.7570	543.60
71.7714	516.55
71.7859	547.64
71.8003	601.55
71.8147	642.53
71.8292	585.24
71.8436	552.78
71.8581	656.02
71.8725	647.32
71.8869	518.38
71.9014	516.41
71.9158	592.12
71.9303	701.50
71.9447	691.72
71.9591	595.75
71.9736	607.91
71.9880	573.37
72.0025	513.45
72.0169	536.41
72.0313	578.50
72.0458	551.15
72.0602	590.63
72.0747	589.20
72.0891	605.88
72.1035	609.41
72.1180	534.20
72.1324	580.56
72.1469	645.35
72.1613	615.35
72.1757	610.53
72.1902	654.35
72.2046	717.41
72.2191	685.79
72.2335	586.20
72.2479	479.27
72.2624	523.09
72.2768	596.70
72.2913	550.91
72.3057	519.34
72.3201	558.20
72.3346	572.72
72.3490	555.14
72.3635	549.02
72.3779	574.06
72.3923	592.64
72.4068	595.46
72.4212	615.12
72.4357	682.27
72.4501	651.21
72.4645	574.85
72.4790	539.07
72.4934	514.18
72.5079	550.39
72.5223	574.68
72.5367	505.48
72.5512	526.85
72.5656	606.88
72.5801	581.03
72.5945	516.31
72.6089	427.18
72.6234	501.94
72.6378	565.02
72.6523	561.99
72.6667	540.93
72.6811	563.42
72.6956	548.67
72.7100	510.05
72.7245	425.21
72.7389	482.19
72.7533	566.27
72.7678	513.29
72.7822	545.27
72.7967	561.45
72.8111	621.93
72.8255	629.19
72.8400	507.76
72.8544	492.92
72.8689	561.72
72.8833	573.54

Result vector
22.1120	565.79
22.1264	577.94
22.1409	518.29
22.1553	542.92
22.1697	520.64
22.1842	529.09
22.1986	578.11
22.2131	667.12
22.2275	575.87
22.2419	660.58
22.2564	605.35
22.2708	549.41
22.2853	576.28
22.2997	597.64
22.3141	536.03
22.3286	601.97
22.3430	645.64
22.3575	632.94
22.3719	574.30
22.3863	531.37
22.4008	529.12
22.4152	603.09
22.4297	624.93
22.4441	603.85
22.4585	636.03
22.4730	683.27
22.4874	564.75
22.5019	585.71
22.5163	652.65
22.5307	586.94
22.5452	612.99
22.5596	638.35
22.5741	623.16
22.5885	573.26
22.6029	561.18
22.6174	586.59
22.6318	598.67
22.6463	610.00
22.6607	556.87
22.6751	574.59
22.6896	534.60
22.7040	501.14
22.7185	499.06
22.7329	607.51
22.7473	550.60
22.7618	562.63
22.7762	597.78
22.7907	565.06
22.8051	566.40
22.8195	578.35
22.8340	604.76
22.8484	541.04
22.8629	631.04
22.8773	585.11
22.8917	541.95
22.9062	498.90
22.9206	547.83
22.9351	541.75
22.9495	655.72
22.9639	614.01
22.9784	595.17
22.9928	585.55
23.0073	554.32
23.0217	601.88
23.0361	508.86
23.0506	542.51
23.0650	612.83
23.0795	575.61
23.0939	546.06
23.1083	503.44
23.1228	589.68
23.1372	562.16
23.1517	494.60
23.1661	550.70
23.1806	504.92
23.1950	563.71
23.2094	525.87
23.2239	564.42
23.2383	563.50
23.2528	557.19
23.2672	553.81
23.2816	563.82
23.2961	604.88
23.3105	570.60
23.3250	565.39
23.3394	616.88
23.3538	587.86
23.3683	527.77
23.3827	543.87
23.3972	530.27
23.4116	539.36
23.4260	562.94
23.4405	511.04
23.4549	509.10
23.4694	567.93
23.4838	535.99
23.4982	566.81
23.5127	572.14
23.5271	561.28
23.5416	549.89
23.5560	608.17
23.5704	535.58
23.5849	607.10
23.5993	516.50
23.6138	558.64
23.6282	542.22
23.6426	568.32
23.6571	532.61
23.6715	554.06
23.6860	519.38
23.7004	613.87
23.7148	623.56
23.7293	554.46
23.7437	542.12
23.7582	565.73
23.7726	588.47
23.7870	590.11
23.8015	626.17
23.8159	559.27
23.8304	568.98
23.8448	499.27
23.8592	589.69
23.8737	574.51
23.8881	583.29
23.9026	553.29
23.9170	652.39
23.9314	519.60
23.9459	556.16
23.9603	567.43
23.9748	632.60
23.9892	540.47
24.0036	535.80
24.0181	540.81
24.0325	638.15
24.0470	542.37
24.0614	691.09
24.0758	474.76
24.0903	562.15
24.1047	540.02
24.1192	535.66
24.1336	519.26
24.1480	523.14
24.1625	580.58
24.1769	589.99
24.1914	612.33
24.2058	540.33
24.2202	596.58
24.2347	576.11
24.2491	593.75
24.2636	571.03
24.2780	599.91
24.2924	576.46
24.3069	590.79
24.3213	521.50
24.3358	545.95
24.3502	581.13
24.3646	566.60
24.3791	542.00
24.3935	515.62
24.4080	540.15
24.4224	574.52
24.4368	544.81
24.4513	545.22
24.4657	538.12
24.4802	524.88
24.4946	575.33
24.5090	512.77
24.5235	571.36
24.5379	537.25
24.5524	576.30
24.5668	556.66
24.5812	531.50
24.5957	579.26
24.6101	550.13
24.6246	522.72
24.6390	513.69
24.6534	583.53
24.6679	508.54
24.6823	537.60
24.6968	520.69
24.7112	554.16
24.7256	530.08
24.7401	522.79
24.7545	537.67
24.7690	559.26
24.7834	502.97
24.7978	505.22
24.8123	530.36
24.8267	504.09
24.8412	638.69
24.8556	554.12
24.8700	555.12
24.8845	556.73
24.8989	558.47
24.9134	537.19
24.9278	513.99
24.9422	565.24
24.9567	564.43
24.9711	569.69
24.9856	516.90
25.0000	543.10
25.0144	579.22
25.0289	568.44
25.0433	520.16
25.0578	531.96
25.0722	568.64
25.0866	547.87
25.1011	527.89
25.1155	508.19
25.1300	573.17
25.1444	538.86
25.1588	559.41
25.1733	553.21
25.1877	530.35
25.2022	560.74
25.2166	563.98
25.2310	547.60
25.2455	543.11
25.2599	543.63
25.2744	564.21
25.2888	568.04
25.3032	553.97
25.3177	545.79
25.3321	560.81
25.3466	537.98
25.3610	553.25
25.3754	541.28
25.3899	525.38
25.4043	562.26
25.4188	534.87
25.4332	569.22
25.4476	510.54
25.4621	544.58
25.4765	497.38
25.4910	554.32
25.5054	521.00
25.5198	519.86
25.5343	553.56
25.5487	534.83
25.5632	530.28
25.5776	552.49
25.5920	523.18
25.6065	521.45
25.6209	535.92
25.6354	534.23
25.6498	522.57
25.6642	537.08
25.6787	529.71
25.6931	506.15
25.7076	585.32
25.7220	540.76
25.7364	542.81
25.7509	522.39
25.7653	541.10
25.7798	558.08
25.7942	507.91
25.8086	526.14
25.8231	548.87
25.8375	502.46
25.8520	532.84
25.8664	527.63
25.8808	528.45
25.8953	560.01
25.9097	585.38
25.9242	520.81
25.9386	522.20
25.9530	513.07
25.9675	503.42
25.9819	522.48
25.9964	522.32
26.0108	550.29
26.0252	571.63
26.0397	534.58
26.0541	493.59
26.0686	541.03
26.0830	551.57
26.0974	533.53
26.1119	513.42
26.1263	529.41
26.1408	515.06
26.1552	512.39
26.1696	560.10
26.1841	530.46
26.1985	510.87
26.2130	539.82
26.2274	567.50
26.2418	537.79
26.2563	519.95
26.2707	514.97
26.2852	534.01
26.2996	567.78
26.3140	558.73
26.3285	566.29
26.3429	562.14
26.3574	544.35
26.3718	503.65
26.3862	493.80
26.4007	507.92
26.4151	510.99
26.4296	536.58
26.4440	503.27
26.4584	556.26
26.4729	544.18
26.4873	567.79
26.5018	566.37
26.5162	551.06
26.5306	559.44
26.5451	528.93
26.5595	508.27
26.5740	527.89
26.5884	526.25
26.6028	515.15
26.6173	548.36
26.6317	549.88
26.6462	497.62
26.6606	541.54
26.6750	556.82
26.6895	533.61
26.7039	529.43
26.7184	530.00
26.7328	533.16
26.7472	512.54
26.7617	509.50
26.7761	518.82
26.7906	551.78
26.8050	560.60
26.8194	517.41
26.8339	533.87
26.8483	545.12
26.8628	553.19
26.8772	557.14
26.8917	517.29
26.9061	541.18
26.9205	541.84
26.9350	539.02
26.9494	521.08
26.9639	496.88
26.9783	490.44
26.9927	509.38
27.0072	512.51
27.0216	499.46
27.0361	524.02
27.0505	534.85
27.0649	510.32
27.0794	484.53
27.0938	522.32
27.1083	519.00
27.1227	533.78
27.1371	530.32
27.1516	488.03
27.1660	476.83
27.1805	498.85
27.1949	503.38
27.2093	515.12
27.2238	506.50
27.2382	520.44
27.2527	515.82
27.2671	542.72
27.2815	497.32
27.2960	478.26
27.3104	516.23
27.3249	515.22
27.3393	528.83
27.3537	538.66
27.3682	515.97
27.3826	510.12
27.3971	492.88
27.4115	517.40
27.4259	514.08
27.4404	505.73
27.4548	508.10
27.4693	495.84
27.4837	522.16
27.4981	531.22
27.5126	525.34
27.5270	540.38
27.5415	510.95
27.5559	527.04
27.5703	493.13
27.5848	509.55
27.5992	522.93
27.6137	506.94
27.6281	491.20
27.6425	492.00
27.6570	544.51
27.6714	506.68
27.6859	488.43
27.7003	488.67
27.7147	534.90
27.7292	532.69
27.7436	527.21
27.7581	520.83
27.7725	519.53
27.7869	539.65
27.8014	537.05
27.8158	507.79
27.8303	550.95
27.8447	499.35
27.8591	506.67
27.8736	490.71
27.8880	535.11
27.9025	550.77
27.9169	546.65
27.9313	519.13
27.9458	530.92
27.9602	467.48
27.9747	520.73
27.9891	543.26
28.0035	536.88
28.0180	505.89
28.0324	509.18
28.0469	534.13
28.0613	541.17
28.0757	530.30
28.0902	527.06
28.1046	495.54
28.1191	507.52
28.1335	539.78
28.1479	534.20
28.1624	513.07
28.1768	515.52
28.1913	518.61
28.2057	504.57
28.2201	522.17
28.2346	528.34
28.2490	521.22
28.2635	512.17
28.2779	499.01
28.2923	548.99
28.3068	514.69
28.3212	528.49
28.3357	510.35
28.3501	542.26
28.3645	529.94
28.3790	508.83
28.3934	514.45
28.4079	503.64
28.4223	496.52
28.4367	527.58
28.4512	498.55
28.4656	490.43
28.4801	525.73
28.4945	504.71
28.5089	533.46
28.5234	515.61
28.5378	499.18
28.5523	498.03
28.5667	510.75
28.5811	561.43
28.5956	494.23
28.6100	500.41
28.6245	481.41
28.6389	527.98
28.6533	513.34
28.6678	505.77
28.6822	499.21
28.6967	535.66
28.7111	530.78
28.7255	536.92
28.7400	530.60
28.7544	533.52
28.7689	494.41
28.7833	482.00
28.7977	494.32
28.8122	506.48
28.8266	503.29
28.8411	551.62
28.8555	519.27
28.8699	523.66
28.8844	516.44
28.8988	523.13
28.9133	529.29
28.9277	492.40
28.9421	536.45
28.9566	515.06
28.9710	474.02
28.9855	482.89
28.9999	489.00
29.0143	525.03
29.0288	523.56
29.0432	517.41
29.0577	497.75
29.0721	494.33
29.0865	519.71
29.1010	519.16
29.1154	499.63
29.1299	512.50
29.1443	524.72
29.1587	484.64
29.1732	515.87
29.1876	511.44
29.2021	521.53
29.2165	517.27
29.2309	481.09
29.2454	513.86
29.2598	470.66
29.2743	491.71
29.2887	508.57
29.3031	527.81
29.3176	499.41
29.3320	506.24
29.3465	517.14
29.3609	537.78
29.3753	497.80
29.3898	502.87
29.4042	503.46
29.4187	510.87
29.4331	525.97
29.4475	541.25
29.4620	528.41
29.4764	513.02
29.4909	504.55
29.5053	455.53
29.5197	467.76
29.5342	480.75
29.5486	517.22
29.5631	477.22
29.5775	498.64
29.5919	517.18
29.6064	483.37
29.6208	507.50
29.6353	531.67
29.6497	523.12
29.6641	490.94
29.6786	488.45
29.6930	502.00
29.7075	536.13
29.7219	507.97
29.7363	525.50
29.7508	490.94
29.7652	514.44
29.7797	477.43
29.7941	469.76
29.8085	507.21
29.8230	534.80
29.8374	541.78
29.8519	503.60
29.8663	505.11
29.8807	531.18
29.8952	487.21
29.9096	520.02
29.9241	501.20
29.9385	504.98
29.9529	499.10
29.9674	514.08
29.9818	466.55
29.9963	509.47
30.0107	517.25
30.0251	513.00
30.0396	454.62
30.0540	478.10
30.0685	480.77
30.0829	506.01
30.0973	539.73
30.1118	530.64
30.1262	532.55
30.1407	488.25
30.1551	504.73
30.1695	520.62
30.1840	535.78
30.1984	476.83
30.2129	481.05
30.2273	484.88
30.2417	522.80
30.2562	501.56
30.2706	484.50
30.2851	530.54
30.2995	530.60
30.3139	550.92
30.3284	539.99
30.3428	533.91
30.3573	488.32
30.3717	531.82
30.3861	513.04
30.4006	483.28
30.4150	509.50
30.4295	537.20
30.4439	532.93
30.4583	550.80
30.4728	566.36
30.4872	588.31
30.5017	581.63
30.5161	627.84
30.5305	677.22
30.5450	678.38
30.5594	709.76
30.5739	721.85
30.5883	734.85
30.6028	755.40
30.6172	720.09
30.6316	688.08
30.6461	689.38
30.6605	677.50
30.6750	628.15
30.6894	616.88
30.7038	606.55
30.7183	539.50
30.7327	523.14
30.7472	528.41
30.7616	515.85
30.7760	520.78
30.7905	546.42
30.8049	517.21
30.8194	501.19
30.8338	525.25
30.8482	501.21
30.8627	532.31
30.8771	515.66
30.8916	499.04
30.9060	527.69
30.9204	517.60
30.9349	528.96
30.9493	494.92
30.9638	500.61
30.9782	481.33
30.9926	482.87
31.0071	488.76
31.0215	510.16
31.0360	523.05
31.0504	508.53
31.0648	494.10
31.0793	492.34
31.0937	508.60
31.1082	489.81
31.1226	516.01
31.1370	512.41
31.1515	479.48
31.1659	509.09
31.1804	539.59
31.1948	534.29
31.2092	520.12
31.2237	511.98
31.2381	531.34
31.2526	533.12
31.2670	529.79
31.2814	516.33
31.2959	526.27
31.3103	535.64
31.3248	539.73
31.3392	541.35
31.3536	534.22
31.3681	539.04
31.3825	548.55
31.3970	509.01
31.4114	522.99
31.4258	533.46
31.4403	533.96
31.4547	510.94
31.4692	513.30
31.4836	520.75
31.4980	464.41
31.5125	464.30
31.5269	510.28
31.5414	504.49
31.5558	515.31
31.5702	488.05
31.5847	489.00
31.5991	509.31
31.6136	514.24
31.6280	515.17
31.6424	480.16
31.6569	483.51
31.6713	483.08
31.6858	515.88
31.7002	496.54
31.7146	502.22
31.7291	480.26
31.7435	494.45
31.7580	515.99
31.7724	502.88
31.7868	526.28
31.8013	491.82
31.8157	516.79
31.8302	500.69
31.8446	475.93
31.8590	520.53
31.8735	525.19
31.8879	499.25
31.9024	532.92
31.9168	543.15
31.9312	514.09
31.9457	519.86
31.9601	525.65
31.9746	511.90
31.9890	519.20
32.0034	510.94
32.0179	521.11
32.0323	508.57
32.0468	497.79
32.0612	545.70
32.0756	528.06
32.0901	513.51
32.1045	505.03
32.1190	518.63
32.1334	510.24
32.1478	501.51
32.1623	507.69
32.1767	512.85
32.1912	483.73
32.2056	475.04
32.2200	491.14
32.2345	496.25
32.2489	487.74
32.2634	519.79
32.2778	511.92
32.2922	493.72
32.3067	479.81
32.3211	512.81
32.3356	521.09
32.3500	532.94
32.3644	545.89
32.3789	509.13
32.3933	514.21
32.4078	517.83
32.4222	533.13
32.4366	494.46
32.4511	506.87
32.4655	503.76
32.4800	487.99
32.4944	480.33
32.5088	531.53
32.5233	487.48
32.5377	469.01
32.5522	501.91
32.5666	535.39
32.5810	534.93
32.5955	528.68
32.6099	498.19
32.6244	487.89
32.6388	530.50
32.6532	524.31
32.6677	503.44
32.6821	504.17
32.6966	509.83
32.7110	513.82
32.7254	480.72
32.7399	496.66
32.7543	533.16
32.7688	511.73
32.7832	506.60
32.7976	474.01
32.8121	542.20
32.8265	531.78
32.8410	505.90
32.8554	491.87
32.8698	514.96
32.8843	508.55
32.8987	533.20
32.9132	472.07
32.9276	503.78
32.9420	531.31
32.9565	506.64
32.9709	481.77
32.9854	488.05
32.9998	493.89
33.0142	488.36
33.0287	518.56
33.0431	535.20
33.0576	536.43
33.0720	532.63
33.0864	496.21
33.1009	515.92
33.1153	521.46
33.1298	504.37
33.1442	523.48
33.1586	538.49
33.1731	487.71
33.1875	457.26
33.2020	448.29
33.2164	482.83
33.2308	499.81
33.2453	504.94
33.2597	473.01
33.2742	478.06
33.2886	502.93
33.3030	504.47
33.3175	489.50
33.3319	533.67
33.3464	526.21
33.3608	511.45
33.3752	490.30
33.3897	497.25
33.4041	509.90
33.4186	508.52
33.4330	526.49
33.4474	506.89
33.4619	484.84
33.4763	510.24
33.4908	547.29
33.5052	506.45
33.5196	502.60
33.5341	504.28
33.5485	521.08
33.5630	500.99
33.5774	494.16
33.5918	497.55
33.6063	495.10
33.6207	525.88
33.6352	493.78
33.6496	499.88
33.6640	489.75
33.6785	518.60
33.6929	493.46
33.7074	507.42
33.7218	540.34
33.7362	501.03
33.7507	511.73
33.7651	493.10
33.7796	511.00
33.7940	495.85
33.8084	490.10
33.8229	505.60
33.8373	505.89
33.8518	472.46
33.8662	509.71
33.8806	510.25
33.8951	529.54
33.9095	519.70
33.9240	477.75
33.9384	514.23
33.9528	494.49
33.9673	501.15
33.9817	501.64
33.9962	530.28
34.0106	520.01
34.0250	481.92
34.0395	450.78
34.0539	449.22
34.0684	515.69
34.0828	512.81
34.0972	524.35
34.1117	469.32
34.1261	468.09
34.1406	504.22
34.1550	493.87
34.1694	486.25
34.1839	495.27
34.1983	470.54
34.2128	487.50
34.2272	488.91
34.2417	484.03
34.2561	469.98
34.2705	522.61
34.2850	491.58
34.2994	494.20
34.3139	493.49
34.3283	503.69
34.3427	503.99
34.3572	539.28
34.3716	497.58
34.3861	490.74
34.4005	500.39
34.4149	482.92
34.4294	494.62
34.4438	518.00
34.4583	484.15
34.4727	493.63
34.4871	521.34
34.5016	523.65
34.5160	494.21
34.5305	512.66
34.5449	493.64
34.5593	474.12
34.5738	494.67
34.5882	503.00
34.6027	496.18
34.6171	493.88
34.6315	485.52
34.6460	483.45
34.6604	490.77
34.6749	493.94
34.6893	497.41
34.7037	510.48
34.7182	508.05
34.7326	510.16
34.7471	515.46
34.7615	506.72
34.7759	528.14
34.7904	523.81
34.8048	521.02
34.8193	532.15
34.8337	493.61
34.8481	500.24
34.8626	525.62
34.8770	503.49
34.8915	510.27
34.9059	555.03
34.9203	509.43
34.9348	477.41
34.9492	473.16
34.9637	502.76
34.9781	507.88
34.9925	490.39
35.0070	492.94
35.0214	501.07
35.0359	509.93
35.0503	524.32
35.0647	527.70
35.0792	516.26
35.0936	526.63
35.1081	493.76
35.1225	518.59
35.1369	528.16
35.1514	503.96
35.1658	520.24
35.1803	509.67
35.1947	497.81
35.2091	508.35
35.2236	506.83
35.2380	519.47
35.2525	482.51
35.2669	478.32
35.2813	482.52
35.2958	504.45
35.3102	489.84
35.3247	505.00
35.3391	507.24
35.3535	515.87
35.3680	505.49
35.3824	557.60
35.3969	494.85
35.4113	514.81
35.4257	547.80
35.4402	529.85
35.4546	513.06
35.4691	540.46
35.4835	519.17
35.4979	519.44
35.5124	519.04
35.5268	540.44
35.5413	546.85
35.5557	537.38
35.5701	530.92
35.5846	527.63
35.5990	520.80
35.6135	528.89
35.6279	543.84
35.6423	559.54
35.6568	542.62
35.6712	551.69
35.6857	589.79
35.7001	680.27
35.7145	756.90
35.7290	731.61
35.7434	644.21
35.7579	656.28
35.7723	621.69
35.7867	672.24
35.8012	760.41
35.8156	756.26
35.8301	712.53
35.8445	689.61
35.8589	809.74
35.8734	891.80
35.8878	963.16
35.9023	1113.79
35.9167	1163.72
35.9311	1254.39
35.9456	1593.10
35.9600	1834.22
35.9745	2000.44
35.9889	2207.12
36.0033	2616.68
36.0178	3018.42
36.0322	3076.91
36.0467	2764.95
36.0611	2163.73
36.0755	2009.98
36.0900	2397.50
36.1044	2548.40
36.1189	1918.05
36.1333	1372.85
36.1477	1035.01
36.1622	996.07
36.1766	965.43
36.1911	893.39
36.2055	784.37
36.2199	733.67
36.2344	705.85
36.2488	661.30
36.2633	558.93
36.2777	585.02
36.2921	570.44
36.3066	542.84
36.3210	553.46
36.3355	573.03
36.3499	554.95
36.3643	544.86
36.3788	521.50
36.3932	524.91
36.4077	502.11
36.4221	543.32
36.4365	541.14
36.4510	543.29
36.4654	535.95
36.4799	531.65
36.4943	543.19
36.5087	543.94
36.5232	545.06
36.5376	508.28
36.5521	540.41
36.5665	530.44
36.5809	536.26
36.5954	522.94
36.6098	519.40
36.6243	497.50
36.6387	522.96
36.6531	518.38
36.6676	493.18
36.6820	503.58
36.6965	547.61
36.7109	520.84
36.7253	525.39
36.7398	513.72
36.7542	545.38
36.7687	541.76
36.7831	518.05
36.7975	532.94
36.8120	586.33
36.8264	599.86
36.8409	595.62
36.8553	561.73
36.8697	550.35
36.8842	608.07
36.8986	576.95
36.9131	593.55
36.9275	571.49
36.9419	602.32
36.9564	571.47
36.9708	572.63
36.9853	558.62
36.9997	563.87
37.0141	521.07
37.0286	522.07
37.0430	522.83
37.0575	532.01
37.0719	489.02
37.0863	519.82
37.1008	544.81
37.1152	526.46
37.1297	523.62
37.1441	522.56
37.1585	501.14
37.1730	499.16
37.1874	495.49
37.2019	497.80
37.2163	502.64
37.2307	508.25
37.2452	474.56
37.2596	498.14
37.2741	503.08
37.2885	515.17
37.3029	490.67
37.3174	522.18
37.3318	510.89
37.3463	480.68
37.3607	442.74
37.3751	476.82
37.3896	493.60
37.4040	480.57
37.4185	516.50
37.4329	520.56
37.4473	482.65
37.4618	504.08
37.4762	505.48
37.4907	512.96
37.5051	519.31
37.5195	513.29
37.5340	524.07
37.5484	499.46
37.5629	524.07
37.5773	507.93
37.5917	500.08
37.6062	497.44
37.6206	477.01
37.6351	461.60
37.6495	492.24
37.6639	493.52
37.6784	485.32
37.6928	516.28
37.7073	506.39
37.7217	496.81
37.7361	452.60
37.7506	499.88
37.7650	511.37
37.7795	523.02
37.7939	530.85
37.8083	517.50
37.8228	525.26
37.8372	469.57
37.8517	463.23
37.8661	506.43
37.8805	510.18
37.8950	519.92
37.9094	531.26
37.9239	486.91
37.9383	499.36
37.9528	504.36
37.9672	494.26
37.9816	457.23
37.9961	487.46
38.0105	512.49
38.0250	502.91
38.0394	514.74
38.0538	511.43
38.0683	483.38
38.0827	522.90
38.0972	512.12
38.1116	528.58
38.1260	522.52
38.1405	530.47
38.1549	481.29
38.1694	478.63
38.1838	464.11
38.1982	502.70
38.2127	509.88
38.2271	530.36
38.2416	528.58
38.2560	502.64
38.2704	496.17
38.2849	519.91
38.2993	528.36
38.3138	530.92
38.3282	532.47
38.3426	504.36
38.3571	501.50
38.3715	493.34
38.3860	521.99
38.4004	553.07
38.4148	526.80
38.4293	561.55
38.4437	572.41
38.4582	601.53
38.4726	623.12
38.4870	655.17
38.5015	733.49
38.5159	764.28
38.5304	794.94
38.5448	821.24
38.5592	764.49
38.5737	766.79
38.5881	760.12
38.6026	739.21
38.6170	712.79
38.6314	707.14
38.6459	652.73
38.6603	638.89
38.6748	611.78
38.6892	581.32
38.7036	541.16
38.7181	522.23
38.7325	515.33
38.7470	535.80
38.7614	525.82
38.7758	478.69
38.7903	514.36
38.8047	543.78
38.8192	520.30
38.8336	507.04
38.8480	500.22
38.8625	521.90
38.8769	518.77
38.8914	501.49
38.9058	505.46
38.9202	517.23
38.9347	498.68
38.9491	516.56
38.9636	530.76
38.9780	522.62
38.9924	531.41
39.0069	499.67
39.0213	507.31
39.0358	491.09
39.0502	513.47
39.0646	529.52
39.0791	511.59
39.0935	515.33
39.1080	508.61
39.1224	505.49
39.1368	499.40
39.1513	497.70
39.1657	504.36
39.1802	457.48
39.1946	453.63
39.2090	471.45
39.2235	468.99
39.2379	502.35
39.2524	496.99
39.2668	489.37
39.2812	518.29
39.2957	489.45
39.3101	507.05
39.3246	531.11
39.3390	539.98
39.3534	505.15
39.3679	527.32
39.3823	518.54
39.3968	485.68
39.4112	492.94
39.4256	504.40
39.4401	513.93
39.4545	544.21
39.4690	525.87
39.4834	526.92
39.4978	508.59
39.5123	504.87
39.5267	488.15
39.5412	512.68
39.5556	513.47
39.5700	513.26
39.5845	493.91
39.5989	491.16
39.6134	521.77
39.6278	485.68
39.6422	475.44
39.6567	492.06
39.6711	474.17
39.6856	489.55
39.7000	495.13
39.7144	523.68
39.7289	512.49
39.7433	504.08
39.7578	506.35
39.7722	531.60
39.7866	517.67
39.8011	500.07
39.8155	515.77
39.8300	504.78
39.8444	475.17
39.8588	507.03
39.8733	520.03
39.8877	507.47
39.9022	518.59
39.9166	500.33
39.9310	504.08
39.9455	514.83
39.9599	486.07
39.9744	476.11
39.9888	474.88
40.0032	490.54
40.0177	463.96
40.0321	482.43
40.0466	487.52
40.0610	501.88
40.0754	508.93
40.0899	483.80
40.1043	492.37
40.1188	522.60
40.1332	527.37
40.1476	501.73
40.1621	484.62
40.1765	493.03
40.1910	491.86
40.2054	516.50
40.2198	490.27
40.2343	507.54
40.2487	500.82
40.2632	472.23
40.2776	476.84
40.2920	506.79
40.3065	488.94
40.3209	483.55
40.3354	483.07
40.3498	488.53
40.3642	491.74
40.3787	506.46
40.3931	498.79
40.4076	510.16
40.4220	501.89
40.4364	479.15
40.4509	486.56
40.4653	497.29
40.4798	512.80
40.4942	500.29
40.5086	449.87
40.5231	469.35
40.5375	504.72
40.5520	458.82
40.5664	487.98
40.5808	497.80
40.5953	482.30
40.6097	492.83
40.6242	482.86
40.6386	527.41
40.6530	508.17
40.6675	516.44
40.6819	497.41
40.6964	490.39
40.7108	504.10
40.7252	461.95
40.7397	474.54
40.7541	497.20
40.7686	469.82
40.7830	481.94
40.7974	495.06
40.8119	517.23
40.8263	500.43
40.8408	479.14
40.8552	501.54
40.8696	496.39
40.8841	488.22
40.8985	489.28
40.9130	496.94
40.9274	495.94
40.9418	505.00
40.9563	507.72
40.9707	513.97
40.9852	506.49
40.9996	510.93
41.0140	495.03
41.0285	486.16
41.0429	527.26
41.0574	531.70
41.0718	478.41
41.0862	495.96
41.1007	470.11
41.1151	509.76
41.1296	505.07
41.1440	485.48
41.1584	512.96
41.1729	507.73
41.1873	480.40
41.2018	484.52
41.2162	511.71
41.2306	518.05
41.2451	527.24
41.2595	505.21
41.2740	514.86
41.2884	464.75
41.3028	467.60
41.3173	490.08
41.3317	529.28
41.3462	487.03
41.3606	503.97
41.3750	508.22
41.3895	490.00
41.4039	480.91
41.4184	536.85
41.4328	529.57
41.4472	489.28
41.4617	524.90
41.4761	527.32
41.4906	491.57
41.5050	523.35
41.5194	518.20
41.5339	485.96
41.5483	500.04
41.5628	492.89
41.5772	504.26
41.5916	481.56
41.6061	470.79
41.6205	501.40
41.6350	505.84
41.6494	494.45
41.6639	502.64
41.6783	517.91
41.6927	499.91
41.7072	530.50
41.7216	529.60
41.7361	486.94
41.7505	501.44
41.7649	488.19
41.7794	501.67
41.7938	489.34
41.8083	498.36
41.8227	543.54
41.8371	516.12
41.8516	522.35
41.8660	563.11
41.8805	562.61
41.8949	539.94
41.9093	553.33
41.9238	546.37
41.9382	533.03
41.9527	574.25
41.9671	563.19
41.9815	562.89
41.9960	581.95
42.0104	565.75
42.0249	558.36
42.0393	562.50
42.0537	552.30
42.0682	581.04
42.0826	604.82
42.0971	621.82
42.1115	597.26
42.1259	603.21
42.1404	577.58
42.1548	602.78
42.1693	674.99
42.1837	703.64
42.1981	767.90
42.2126	804.33
42.2270	934.76
42.2415	1063.24
42.2559	1161.38
42.2703	1344.85
42.2848	1458.30
42.2992	1582.15
42.3137	1641.29
42.3281	1595.93
42.3425	1479.58
42.3570	1430.95
42.3714	1358.37
42.3859	1303.98
42.4003	1310.96
42.4147	1335.02
42.4292	1328.16
42.4436	1117.66
42.4581	1060.89
42.4725	912.47
42.4869	803.41
42.5014	769.21
42.5158	698.85
42.5303	646.14
42.5447	613.11
42.5591	634.00
42.5736	596.07
42.5880	592.48
42.6025	560.83
42.6169	544.36
42.6313	568.97
42.6458	555.01
42.6602	523.22
42.6747	528.31
42.6891	512.53
42.7035	517.95
42.7180	524.37
42.7324	484.11
42.7469	494.78
42.7613	479.79
42.7757	494.90
42.7902	501.45
42.8046	502.75
42.8191	517.07
42.8335	502.87
42.8479	534.69
42.8624	514.65
42.8768	536.44
42.8913	491.88
42.9057	545.12
42.9201	521.25
42.9346	504.40
42.9490	533.62
42.9635	548.50
42.9779	537.07
42.9923	519.19
43.0068	538.92
43.0212	526.18
43.0357	518.47
43.0501	506.88
43.0645	512.37
43.0790	528.73
43.0934	501.35
43.1079	506.06
43.1223	517.56
43.1367	525.21
43.1512	511.95
43.1656	522.38
43.1801	542.36
43.1945	519.31
43.2089	513.56
43.2234	525.78
43.2378	544.98
43.2523	538.57
43.2667	529.74
43.2811	508.33
43.2956	500.48
43.3100	500.46
43.3245	539.38
43.3389	562.89
43.3533	561.57
43.3678	535.90
43.3822	534.01
43.3967	520.58
43.4111	507.73
43.4255	520.59
43.4400	527.47
43.4544	517.05
43.4689	540.52
43.4833	511.07
43.4977	511.29
43.5122	538.55
43.5266	530.18
43.5411	527.49
43.5555	506.40
43.5699	477.97
43.5844	527.67
43.5988	539.45
43.6133	537.18
43.6277	524.94
43.6421	550.01
43.6566	546.72
43.6710	565.09
43.6855	564.81
43.6999	619.16
43.7143	667.51
43.7288	652.75
43.7432	670.75
43.7577	673.74
43.7721	658.84
43.7865	672.58
43.8010	648.49
43.8154	625.58
43.8299	613.22
43.8443	614.46
43.8587	606.12
43.8732	596.79
43.8876	572.24
43.9021	575.57
43.9165	600.13
43.9309	576.75
43.9454	539.90
43.9598	491.07
43.9743	510.70
43.9887	507.94
44.0031	490.75
44.0176	484.11
44.0320	503.03
44.0465	517.45
44.0609	488.12
44.0753	491.44
44.0898	510.77
44.1042	507.17
44.1187	538.15
44.1331	522.94
44.1475	513.57
44.1620	515.01
44.1764	500.74
44.1909	507.83
44.2053	528.93
44.2197	519.35
44.2342	543.08
44.2486	511.06
44.2631	523.83
44.2775	535.63
44.2919	529.22
44.3064	513.43
44.3208	542.23
44.3353	560.12
44.3497	534.20
44.3641	514.39
44.3786	519.00
44.3930	534.10
44.4075	544.73
44.4219	575.91
44.4363	588.04
44.4508	554.29
44.4652	587.37
44.4797	587.16
44.4941	566.08
44.5085	538.06
44.5230	547.73
44.5374	567.74
44.5519	598.55
44.5663	575.38
44.5807	586.28
44.5952	587.22
44.6096	566.94
44.6241	580.73
44.6385	584.02
44.6529	550.82
44.6674	576.50
44.6818	583.05
44.6963	620.76
44.7107	678.96
44.7251	721.39
44.7396	726.73
44.7540	826.74
44.7685	816.41
44.7829	866.54
44.7973	854.80
44.8118	836.03
44.8262	786.03
44.8407	791.19
44.8551	733.49
44.8695	715.81
44.8840	730.68
44.8984	753.46
44.9129	740.52
44.9273	677.54
44.9417	694.44
44.9562	638.30
44.9706	551.28
44.9851	535.87
44.9995	547.16
45.0139	535.18
45.0284	538.03
45.0428	500.80
45.0573	473.71
45.0717	522.92
45.0861	501.41
45.1006	547.13
45.1150	546.58
45.1295	530.75
45.1439	502.78
45.1583	502.57
45.1728	517.23
45.1872	521.55
45.2017	529.23
45.2161	532.06
45.2305	539.91
45.2450	550.37
45.2594	531.25
45.2739	509.64
45.2883	519.90
45.3028	468.80
45.3172	517.69
45.3316	546.06
45.3461	507.40
45.3605	513.63
45.3750	517.11
45.3894	495.65
45.4038	481.47
45.4183	517.20
45.4327	506.89
45.4472	494.70
45.4616	483.42
45.4760	509.63
45.4905	483.10
45.5049	489.05
45.5194	513.30
45.5338	486.98
45.5482	530.73
45.5627	544.28
45.5771	522.37
45.5916	516.43
45.6060	517.73
45.6204	496.73
45.6349	515.11
45.6493	518.82
45.6638	504.60
45.6782	526.37
45.6926	501.52
45.7071	519.87
45.7215	519.64
45.7360	490.94
45.7504	548.81
45.7648	506.82
45.7793	527.39
45.7937	503.87
45.8082	489.00
45.8226	491.03
45.8370	490.22
45.8515	507.29
45.8659	501.42
45.8804	520.06
45.8948	494.48
45.9092	486.94
45.9237	480.01
45.9381	492.59
45.9526	482.70
45.9670	511.37
45.9814	467.78
45.9959	522.65
46.0103	496.74
46.0248	518.59
46.0392	521.69
46.0536	526.63
46.0681	529.61
46.0825	500.38
46.0970	482.93
46.1114	483.21
46.1258	534.16
46.1403	506.39
46.1547	519.53
46.1692	525.13
46.1836	461.70
46.1980	491.33
46.2125	503.09
46.2269	493.75
46.2414	472.68
46.2558	494.13
46.2702	513.15
46.2847	499.54
46.2991	501.30
46.3136	499.74
46.3280	471.24
46.3424	503.41
46.3569	497.96
46.3713	508.07
46.3858	499.51
46.4002	470.84
46.4146	467.06
46.4291	521.65
46.4435	501.61
46.4580	504.35
46.4724	499.31
46.4868	501.49
46.5013	487.45
46.5157	493.94
46.5302	497.92
46.5446	473.67
46.5590	489.15
46.5735	454.69
46.5879	464.01
46.6024	480.45
46.6168	493.60
46.6312	514.21
46.6457	510.94
46.6601	494.68
46.6746	486.63
46.6890	475.04
46.7034	518.43
46.7179	526.65
46.7323	492.77
46.7468	511.45
46.7612	500.92
46.7756	530.15
46.7901	499.96
46.8045	520.38
46.8190	524.13
46.8334	506.62
46.8478	485.52
46.8623	504.14
46.8767	515.97
46.8912	499.20
46.9056	547.00
46.9200	502.29
46.9345	494.73
46.9489	485.00
46.9634	507.61
46.9778	517.68
46.9922	511.35
47.0067	503.81
47.0211	491.81
47.0356	492.22
47.0500	523.69
47.0644	538.21
47.0789	529.46
47.0933	545.33
47.1078	531.42
47.1222	549.18
47.1366	515.65
47.1511	501.69
47.1655	530.44
47.1800	538.81
47.1944	548.94
47.2088	513.24
47.2233	486.97
47.2377	519.06
47.2522	517.03
47.2666	489.95
47.2810	505.65
47.2955	486.95
47.3099	488.38
47.3244	532.33
47.3388	527.89
47.3532	503.90
47.3677	480.20
47.3821	501.10
47.3966	487.62
47.4110	513.53
47.4254	512.61
47.4399	508.64
47.4543	465.03
47.4688	498.43
47.4832	491.82
47.4976	492.28
47.5121	501.12
47.5265	517.79
47.5410	508.36
47.5554	523.06
47.5698	486.34
47.5843	489.74
47.5987	515.12
47.6132	535.44
47.6276	504.52
47.6420	498.48
47.6565	513.29
47.6709	498.75
47.6854	496.84
47.6998	518.60
47.7142	494.31
47.7287	466.68
47.7431	466.22
47.7576	495.48
47.7720	515.09
47.7864	519.90
47.8009	519.96
47.8153	517.29
47.8298	479.59
47.8442	534.15
47.8586	531.18
47.8731	556.48
47.8875	491.98
47.9020	504.04
47.9164	547.08
47.9308	515.77
47.9453	517.50
47.9597	537.01
47.9742	541.49
47.9886	508.29
48.0030	504.42
48.0175	497.06
48.0319	513.65
48.0464	513.90
48.0608	493.76
48.0752	489.22
48.0897	512.20
48.1041	478.78
48.1186	548.05
48.1330	538.68
48.1474	506.55
48.1619	519.64
48.1763	498.31
48.1908	482.06
48.2052	471.52
48.2196	494.47
48.2341	478.47
48.2485	507.15
48.2630	482.82
48.2774	480.38
48.2918	509.97
48.3063	495.40
48.3207	491.57
48.3352	532.04
48.3496	499.73
48.3640	511.97
48.3785	514.13
48.3929	482.86
48.4074	518.30
48.4218	505.29
48.4362	526.82
48.4507	515.64
48.4651	527.79
48.4796	530.09
48.4940	516.48
48.5084	494.01
48.5229	519.88
48.5373	515.67
48.5518	489.96
48.5662	532.52
48.5806	504.52
48.5951	539.82
48.6095	509.09
48.6240	519.09
48.6384	538.97
48.6528	524.76
48.6673	531.37
48.6817	523.13
48.6962	530.53
48.7106	548.33
48.7250	518.87
48.7395	514.89
48.7539	544.87
48.7684	522.25
48.7828	545.31
48.7972	509.60
48.8117	572.26
48.8261	541.85
48.8406	552.12
48.8550	532.00
48.8694	543.64
48.8839	533.05
48.8983	557.20
48.9128	567.37
48.9272	533.49
48.9416	565.44
48.9561	553.28
48.9705	616.94
48.9850	549.66
48.9994	572.59
49.0139	613.76
49.0283	628.48
49.0427	590.20
49.0572	634.77
49.0716	651.25
49.0861	679.53
49.1005	678.50
49.1149	706.58
49.1294	738.02
49.1438	738.22
49.1583	794.77
49.1727	881.02
49.1871	926.71
49.2016	997.58
49.2160	1058.29
49.2305	1148.24
49.2449	1237.35
49.2593	1259.34
49.2738	1386.22
49.2882	1523.78
49.3027	1625.75
49.3171	1684.74
49.3315	1750.20
49.3460	1794.23
49.3604	1871.90
49.3749	1829.58
49.3893	1792.06
49.4037	1798.95
49.4182	1831.84
49.4326	1827.32
49.4471	1692.01
49.4615	1580.96
49.4759	1574.23
49.4904	1510.84
49.5048	1380.72
49.5193	1302.58
49.5337	1241.01
49.5481	1210.75
49.5626	1096.10
49.5770	1056.52
49.5915	967.34
49.6059	920.09
49.6203	853.25
49.6348	857.35
49.6492	773.90
49.6637	743.75
49.6781	684.24
49.6925	666.86
49.7070	697.20
49.7214	635.98
49.7359	615.29
49.7503	621.59
49.7647	581.80
49.7792	590.17
49.7936	592.54
49.8081	566.73
49.8225	575.28
49.8369	568.45
49.8514	536.29
49.8658	584.17
49.8803	565.74
49.8947	543.72
49.9091	542.35
49.9236	530.72
49.9380	535.80
49.9525	557.20
49.9669	531.17
49.9813	527.18
49.9958	535.25
50.0102	530.52
50.0247	543.93
50.0391	516.97
50.0535	524.14
50.0680	502.59
50.0824	516.94
50.0969	527.93
50.1113	509.40
50.1257	539.63
50.1402	509.13
50.1546	537.54
50.1691	521.97
50.1835	522.69
50.1979	494.71
50.2124	512.97
50.2268	499.92
50.2413	494.68
50.2557	502.31
50.2701	532.16
50.2846	512.86
50.2990	485.57
50.3135	498.68
50.3279	500.58
50.3423	507.88
50.3568	506.82
50.3712	492.49
50.3857	498.61
50.4001	503.66
50.4145	493.42
50.4290	512.62
50.4434	513.07
50.4579	513.36
50.4723	557.47
50.4867	538.78
50.5012	526.93
50.5156	507.33
50.5301	515.94
50.5445	486.94
50.5589	515.09
50.5734	507.59
50.5878	459.34
50.6023	473.81
50.6167	519.28
50.6311	517.17
50.6456	485.37
50.6600	474.02
50.6745	469.39
50.6889	473.78
50.7033	502.48
50.7178	514.30
50.7322	503.58
50.7467	487.60
50.7611	509.31
50.7755	515.24
50.7900	497.72
50.8044	502.94
50.8189	508.17
50.8333	484.06
50.8477	500.90
50.8622	499.19
50.8766	486.78
50.8911	495.60
50.9055	534.30
50.9199	532.29
50.9344	521.23
50.9488	528.69
50.9633	525.66
50.9777	489.33
50.9921	519.01
51.0066	499.91
51.0210	516.99
51.0355	493.04
51.0499	517.01
51.0643	530.30
51.0788	486.70
51.0932	489.92
51.1077	479.11
51.1221	486.34
51.1365	541.50
51.1510	526.14
51.1654	517.42
51.1799	503.73
51.1943	485.90
51.2087	522.57
51.2232	512.49
51.2376	526.97
51.2521	478.31
51.2665	496.19
51.2809	537.52
51.2954	533.24
51.3098	528.31
51.3243	510.16
51.3387	505.60
51.3531	515.73
51.3676	499.33
51.3820	509.12
51.3965	488.63
51.4109	475.79
51.4253	493.55
51.4398	503.83
51.4542	463.47
51.4687	542.74
51.4831	536.20
51.4975	516.07
51.5120	497.63
51.5264	495.83
51.5409	506.79
51.5553	473.21
51.5697	494.54
51.5842	493.13
51.5986	488.63
51.6131	491.59
51.6275	539.24
51.6419	510.35
51.6564	513.66
51.6708	504.10
51.6853	485.10
51.6997	524.51
51.7141	521.75
51.7286	463.96
51.7430	486.84
51.7575	486.44
51.7719	509.72
51.7863	538.23
51.8008	510.18
51.8152	500.00
51.8297	495.51
51.8441	536.31
51.8585	532.74
51.8730	525.97
51.8874	479.81
51.9019	516.21
51.9163	518.78
51.9307	458.92
51.9452	490.28
51.9596	518.05
51.9741	525.56
51.9885	511.01
52.0029	515.17
52.0174	527.00
52.0318	509.29
52.0463	504.38
52.0607	508.80
52.0751	487.77
52.0896	489.80
52.1040	510.95
52.1185	503.18
52.1329	495.18
52.1473	471.47
52.1618	511.75
52.1762	501.28
52.1907	505.70
52.2051	499.34
52.2195	506.09
52.2340	531.41
52.2484	511.11
52.2629	512.67
52.2773	522.95
52.2917	525.52
52.3062	481.67
52.3206	500.16
52.3351	497.49
52.3495	503.50
52.3639	537.45
52.3784	532.91
52.3928	517.53
52.4073	511.88
52.4217	532.73
52.4361	506.11
52.4506	501.66
52.4650	543.69
52.4795	511.24
52.4939	504.46
52.5083	482.35
52.5228	491.70
52.5372	521.17
52.5517	503.90
52.5661	549.94
52.5805	491.86
52.5950	528.45
52.6094	501.55
52.6239	496.45
52.6383	517.79
52.6527	525.14
52.6672	534.32
52.6816	508.97
52.6961	487.23
52.7105	532.05
52.7250	514.63
52.7394	544.46
52.7538	529.61
52.7683	519.04
52.7827	512.82
52.7972	521.95
52.8116	491.19
52.8260	496.37
52.8405	522.57
52.8549	502.45
52.8694	513.73
52.8838	508.45
52.8982	530.28
52.9127	522.11
52.9271	510.71
52.9416	544.02
52.9560	473.50
52.9704	514.86
52.9849	521.07
52.9993	501.56
53.0138	510.96
53.0282	477.10
53.0426	532.54
53.0571	543.48
53.0715	527.68
53.0860	529.01
53.1004	498.57
53.1148	490.84
53.1293	511.31
53.1437	481.72
53.1582	512.07
53.1726	519.42
53.1870	475.97
53.2015	480.04
53.2159	495.91
53.2304	537.57
53.2448	515.95
53.2592	494.64
53.2737	498.91
53.2881	473.30
53.3026	450.93
53.3170	496.13
53.3314	470.45
53.3459	511.96
53.3603	544.02
53.3748	492.59
53.3892	477.03
53.4036	516.88
53.4181	508.18
53.4325	502.10
53.4470	509.08
53.4614	533.08
53.4758	525.55
53.4903	529.80
53.5047	514.54
53.5192	522.79
53.5336	518.40
53.5480	514.05
53.5625	525.26
53.5769	526.21
53.5914	496.40
53.6058	503.49
53.6202	528.64
53.6347	523.19
53.6491	529.25
53.6636	467.51
53.6780	489.47
53.6924	481.16
53.7069	547.55
53.7213	512.75
53.7358	485.53
53.7502	478.09
53.7646	492.53
53.7791	520.02
53.7935	532.06
53.8080	536.20
53.8224	534.11
53.8368	509.25
53.8513	503.33
53.8657	540.46
53.8802	502.57
53.8946	494.97
53.9090	524.86
53.9235	505.47
53.9379	485.17
53.9524	511.66
53.9668	503.99
53.9812	568.02
53.9957	521.43
54.0101	486.14
54.0246	486.69
54.0390	522.11
54.0534	562.47
54.0679	557.56
54.0823	563.14
54.0968	561.61
54.1112	532.83
54.1256	546.69
54.1401	517.83
54.1545	478.84
54.1690	530.62
54.1834	550.92
54.1978	588.68
54.2123	576.84
54.2267	590.15
54.2412	618.58
54.2556	625.89
54.2700	642.83
54.2845	627.13
54.2989	666.05
54.3134	631.55
54.3278	614.26
54.3422	603.97
54.3567	587.60
54.3711	571.46
54.3856	563.60
54.4000	573.99
54.4144	586.79
54.4289	615.77
54.4433	571.94
54.4578	578.16
54.4722	593.20
54.4866	553.99
54.5011	547.56
54.5155	541.75
54.5300	506.88
54.5444	535.65
54.5588	534.69
54.5733	487.98
54.5877	487.11
54.6022	497.56
54.6166	524.20
54.6310	517.51
54.6455	529.17
54.6599	529.11
54.6744	545.70
54.6888	528.48
54.7032	507.97
54.7177	517.33
54.7321	495.87
54.7466	518.04
54.7610	493.43
54.7754	521.67
54.7899	510.92
54.8043	511.56
54.8188	503.70
54.8332	501.52
54.8476	504.83
54.8621	499.54
54.8765	486.73
54.8910	512.40
54.9054	508.26
54.9198	494.26
54.9343	545.84
54.9487	498.42
54.9632	507.78
54.9776	484.01
54.9920	510.01
55.0065	479.06
55.0209	492.78
55.0354	494.80
55.0498	507.95
55.0642	529.43
55.0787	524.43
55.0931	521.95
55.1076	510.97
55.1220	537.74
55.1364	515.89
55.1509	523.91
55.1653	526.33
55.1798	528.78
55.1942	492.27
55.2086	498.91
55.2231	544.95
55.2375	527.53
55.2520	529.65
55.2664	504.35
55.2808	510.88
55.2953	502.89
55.3097	536.25
55.3242	511.40
55.3386	490.04
55.3530	517.59
55.3675	526.23
55.3819	525.85
55.3964	493.54
55.4108	501.51
55.4252	543.61
55.4397	496.34
55.4541	503.40
55.4686	507.37
55.4830	529.98
55.4974	517.82
55.5119	494.74
55.5263	519.93
55.5408	529.03
55.5552	509.56
55.5696	510.06
55.5841	496.58
55.5985	514.59
55.6130	546.10
55.6274	547.03
55.6418	505.69
55.6563	500.26
55.6707	533.83
55.6852	522.74
55.6996	511.47
55.7140	488.80
55.7285	512.60
55.7429	518.47
55.7574	495.58
55.7718	483.40
55.7862	555.63
55.8007	497.70
55.8151	492.87
55.8296	581.77
55.8440	509.15
55.8584	519.70
55.8729	518.61
55.8873	485.41
55.9018	552.46
55.9162	519.36
55.9306	515.66
55.9451	550.81
55.9595	537.66
55.9740	549.74
55.9884	518.79
56.0028	518.56
56.0173	512.51
56.0317	508.22
56.0462	517.44
56.0606	468.98
56.0750	482.66
56.0895	575.75
56.1039	502.22
56.1184	523.07
56.1328	495.60
56.1472	478.55
56.1617	503.54
56.1761	522.42
56.1906	518.23
56.2050	523.54
56.2194	499.51
56.2339	549.02
56.2483	510.54
56.2628	500.98
56.2772	522.73
56.2916	484.38
56.3061	557.41
56.3205	516.31
56.3350	532.23
56.3494	543.53
56.3639	519.34
56.3783	504.91
56.3927	488.69
56.4072	532.92
56.4216	526.07
56.4361	558.40
56.4505	518.26
56.4649	522.85
56.4794	520.87
56.4938	508.81
56.5083	511.12
56.5227	499.03
56.5371	543.60
56.5516	501.49
56.5660	491.00
56.5805	491.27
56.5949	495.38
56.6093	523.00
56.6238	492.33
56.6382	521.68
56.6527	530.25
56.6671	498.85
56.6815	510.03
56.6960	506.33
56.7104	539.32
56.7249	532.78
56.7393	517.68
56.7537	559.81
56.7682	531.91
56.7826	532.84
56.7971	520.26
56.8115	450.12
56.8259	537.37
56.8404	500.90
56.8548	514.87
56.8693	525.00
56.8837	507.13
56.8981	533.88
56.9126	534.61
56.9270	556.90
56.9415	546.49
56.9559	555.04
56.9703	519.14
56.9848	502.06
56.9992	525.02
57.0137	490.90
57.0281	582.17
57.0425	538.99
57.0570	539.85
57.0714	520.55
57.0859	496.52
57.1003	541.26
57.1147	532.45
57.1292	522.42
57.1436	507.06
57.1581	477.40
57.1725	551.08
57.1869	527.85
57.2014	507.25
57.2158	504.96
57.2303	513.95
57.2447	499.78
57.2591	517.35
57.2736	504.02
57.2880	512.18
57.3025	504.45
57.3169	504.48
57.3313	517.37
57.3458	526.46
57.3602	525.55
57.3747	533.12
57.3891	548.38
57.4035	522.87
57.4180	499.08
57.4324	585.88
57.4469	526.94
57.4613	511.78
57.4757	524.62
57.4902	557.02
57.5046	508.82
57.5191	530.78
57.5335	529.81
57.5479	532.72
57.5624	534.94
57.5768	513.36
57.5913	505.89
57.6057	556.39
57.6201	555.67
57.6346	536.28
57.6490	527.93
57.6635	515.42
57.6779	517.71
57.6923	534.40
57.7068	564.08
57.7212	555.61
57.7357	544.76
57.7501	560.38
57.7645	572.43
57.7790	604.22
57.7934	591.41
57.8079	615.02
57.8223	666.37
57.8367	692.39
57.8512	742.16
57.8656	822.97
57.8801	811.07
57.8945	774.45
57.9089	746.06
57.9234	710.47
57.9378	721.47
57.9523	643.06
57.9667	634.33
57.9811	670.89
57.9956	671.17
58.0100	653.36
58.0245	670.81
58.0389	673.26
58.0533	711.78
58.0678	677.77
58.0822	665.22
58.0967	638.23
58.1111	586.12
58.1255	631.62
58.1400	571.47
58.1544	534.15
58.1689	541.71
58.1833	553.72
58.1977	522.14
58.2122	540.43
58.2266	541.63
58.2411	540.56
58.2555	546.14
58.2699	526.06
58.2844	550.74
58.2988	539.78
58.3133	555.30
58.3277	535.75
58.3421	537.85
58.3566	556.36
58.3710	521.86
58.3855	532.49
58.3999	540.21
58.4143	537.33
58.4288	551.48
58.4432	533.54
58.4577	542.39
58.4721	540.29
58.4865	527.77
58.5010	510.62
58.5154	501.03
58.5299	527.69
58.5443	548.44
58.5587	555.97
58.5732	503.06
58.5876	520.86
58.6021	542.67
58.6165	544.17
58.6309	525.77
58.6454	498.43
58.6598	506.14
58.6743	515.04
58.6887	520.69
58.7031	536.71
58.7176	550.16
58.7320	542.02
58.7465	572.22
58.7609	528.63
58.7753	510.92
58.7898	535.50
58.8042	558.77
58.8187	548.58
58.8331	541.73
58.8475	515.63
58.8620	527.73
58.8764	532.49
58.8909	513.17
58.9053	555.23
58.9197	542.44
58.9342	509.90
58.9486	506.49
58.9631	497.42
58.9775	543.57
58.9919	587.32
59.0064	542.92
59.0208	521.37
59.0353	517.04
59.0497	543.74
59.0641	557.71
59.0786	528.99
59.0930	523.53
59.1075	496.64
59.1219	524.60
59.1363	513.28
59.1508	504.39
59.1652	553.69
59.1797	538.49
59.1941	556.63
59.2085	557.57
59.2230	535.52
59.2374	540.11
59.2519	534.30
59.2663	510.98
59.2807	564.52
59.2952	541.11
59.3096	520.45
59.3241	534.67
59.3385	582.87
59.3529	560.28
59.3674	554.82
59.3818	542.16
59.3963	572.19
59.4107	538.82
59.4251	586.52
59.4396	569.52
59.4540	550.88
59.4685	539.45
59.4829	542.74
59.4973	550.70
59.5118	549.17
59.5262	533.88
59.5407	545.23
59.5551	570.24
59.5695	533.27
59.5840	532.87
59.5984	556.18
59.6129	523.90
59.6273	529.52
59.6417	536.22
59.6562	513.66
59.6706	509.25
59.6851	528.33
59.6995	521.44
59.7139	575.20
59.7284	519.75
59.7428	508.65
59.7573	532.99
59.7717	500.13
59.7861	527.49
59.8006	506.44
59.8150	539.50
59.8295	550.60
59.8439	540.87
59.8583	519.81
59.8728	516.19
59.8872	488.38
59.9017	547.18
59.9161	548.19
59.9305	512.55
59.9450	525.07
59.9594	522.63
59.9739	527.56
59.9883	542.28
60.0027	534.10
60.0172	525.11
60.0316	506.28
60.0461	527.37
60.0605	555.28
60.0750	531.56
60.0894	553.97
60.1038	524.86
60.1183	552.35
60.1327	518.09
60.1472	519.72
60.1616	524.75
60.1760	540.85
60.1905	545.95
60.2049	528.57
60.2194	553.95
60.2338	537.18
60.2482	558.08
60.2627	548.75
60.2771	546.31
60.2916	509.96
60.3060	562.81
60.3204	518.61
60.3349	532.86
60.3493	497.44
60.3638	540.64
60.3782	570.63
60.3926	558.05
60.4071	563.02
60.4215	586.33
60.4360	564.27
60.4504	534.08
60.4648	513.63
60.4793	538.48
60.4937	539.69
60.5082	503.74
60.5226	552.85
60.5370	562.58
60.5515	544.78
60.5659	546.95
60.5804	548.59
60.5948	534.97
60.6092	531.29
60.6237	500.23
60.6381	522.57
60.6526	534.25
60.6670	550.47
60.6814	544.77
60.6959	531.27
60.7103	560.71
60.7248	539.02
60.7392	520.60
60.7536	523.88
60.7681	514.74
60.7825	544.38
60.7970	517.45
60.8114	523.79
60.8258	530.07
60.8403	548.55
60.8547	529.59
60.8692	542.66
60.8836	508.55
60.8980	570.55
60.9125	532.97
60.9269	494.46
60.9414	556.86
60.9558	533.57
60.9702	504.08
60.9847	529.37
60.9991	500.05
61.0136	526.22
61.0280	540.89
61.0424	510.42
61.0569	539.45
61.0713	557.15
61.0858	565.91
61.1002	570.26
61.1146	584.24
61.1291	572.42
61.1435	549.49
61.1580	565.91
61.1724	554.56
61.1868	548.59
61.2013	538.46
61.2157	514.10
61.2302	545.44
61.2446	545.80
61.2590	517.91
61.2735	525.80
61.2879	553.73
61.3024	533.30
61.3168	515.68
61.3312	567.28
61.3457	555.15
61.3601	540.28
61.3746	527.65
61.3890	528.77
61.4034	500.41
61.4179	523.64
61.4323	569.68
61.4468	529.41
61.4612	543.96
61.4756	536.73
61.4901	540.36
61.5045	549.76
61.5190	513.74
61.5334	535.12
61.5478	532.46
61.5623	552.51
61.5767	523.03
61.5912	516.16
61.6056	563.70
61.6200	541.79
61.6345	528.21
61.6489	541.10
61.6634	561.46
61.6778	502.52
61.6922	526.77
61.7067	544.18
61.7211	540.93
61.7356	557.55
61.7500	595.34
61.7644	544.81
61.7789	551.10
61.7933	573.24
61.8078	550.98
61.8222	537.59
61.8366	564.15
61.8511	556.60
61.8655	547.87
61.8800	549.25
61.8944	508.92
61.9088	507.00
61.9233	523.58
61.9377	530.39
61.9522	517.80
61.9666	508.57
61.9810	539.35
61.9955	571.59
62.0099	523.30
62.0244	569.90
62.0388	528.89
62.0532	533.78
62.0677	558.22
62.0821	566.31
62.0966	539.20
62.1110	551.08
62.1254	565.27
62.1399	547.41
62.1543	533.29
62.1688	558.86
62.1832	544.19
62.1976	532.16
62.2121	548.81
62.2265	558.28
62.2410	541.67
62.2554	549.79
62.2698	550.33
62.2843	562.81
62.2987	543.70
62.3132	560.83
62.3276	540.22
62.3420	579.78
62.3565	558.28
62.3709	574.75
62.3854	530.04
62.3998	547.08
62.4142	548.02
62.4287	549.04
62.4431	514.18
62.4576	553.55
62.4720	560.88
62.4864	584.97
62.5009	538.99
62.5153	537.04
62.5298	513.60
62.5442	510.98
62.5586	552.12
62.5731	559.53
62.5875	553.19
62.6020	543.10
62.6164	532.74
62.6308	531.80
62.6453	564.79
62.6597	560.52
62.6742	566.58
62.6886	526.57
62.7030	527.50
62.7175	555.52
62.7319	578.02
62.7464	554.13
62.7608	575.26
62.7752	541.59
62.7897	551.04
62.8041	568.28
62.8186	578.70
62.8330	560.32
62.8474	543.96
62.8619	520.41
62.8763	553.03
62.8908	536.59
62.9052	550.86
62.9196	570.97
62.9341	555.43
62.9485	557.44
62.9630	567.47
62.9774	560.46
62.9918	566.08
63.0063	547.98
63.0207	557.93
63.0352	591.67
63.0496	581.41
63.0640	608.65
63.0785	598.95
63.0929	608.71
63.1074	585.90
63.1218	586.78
63.1362	592.94
63.1507	562.54
63.1651	586.22
63.1796	591.38
63.1940	553.57
63.2084	556.41
63.2229	598.62
63.2373	565.11
63.2518	558.56
63.2662	552.92
63.2806	567.69
63.2951	573.99
63.3095	601.70
63.3240	587.71
63.3384	598.72
63.3528	607.75
63.3673	600.60
63.3817	616.21
63.3962	642.10
63.4106	614.02
63.4250	655.74
63.4395	633.87
63.4539	638.93
63.4684	694.25
63.4828	721.08
63.4972	785.76
63.5117	787.75
63.5261	849.08
63.5406	900.52
63.5550	974.36
63.5694	923.59
63.5839	954.28
63.5983	935.53
63.6128	893.74
63.6272	838.47
63.6416	795.81
63.6561	767.32
63.6705	729.44
63.6850	765.06
63.6994	773.61
63.7138	839.68
63.7283	847.10
63.7427	788.98
63.7572	804.52
63.7716	769.96
63.7861	719.70
63.8005	726.66
63.8149	722.78
63.8294	676.37
63.8438	644.12
63.8583	658.02
63.8727	671.26
63.8871	662.87
63.9016	664.31
63.9160	619.17
63.9305	548.81
63.9449	617.07
63.9593	600.24
63.9738	609.50
63.9882	631.25
64.0027	609.64
64.0171	609.50
64.0315	581.33
64.0460	606.76
64.0604	614.25
64.0749	579.25
64.0893	631.64
64.1037	575.76
64.1182	596.24
64.1326	577.55
64.1471	548.61
64.1615	578.54
64.1759	570.58
64.1904	578.36
64.2048	587.77
64.2193	572.00
64.2337	608.36
64.2481	624.18
64.2626	582.93
64.2770	594.02
64.2915	543.49
64.3059	587.07
64.3203	599.62
64.3348	625.79
64.3492	586.76
64.3637	598.23
64.3781	620.66
64.3925	630.84
64.4070	592.69
64.4214	620.05
64.4359	618.12
64.4503	589.22
64.4647	613.57
64.4792	607.14
64.4936	625.30
64.5081	596.02
64.5225	627.72
64.5369	609.54
64.5514	627.11
64.5658	601.62
64.5803	596.47
64.5947	638.40
64.6091	645.64
64.6236	666.25
64.6380	674.51
64.6525	662.61
64.6669	640.39
64.6813	617.22
64.6958	673.13
64.7102	715.71
64.7247	648.85
64.7391	674.31
64.7535	676.87
64.7680	706.11
64.7824	703.68
64.7969	734.13
64.8113	760.95
64.8257	835.59
64.8402	832.04
64.8546	849.10
64.8691	823.34
64.8835	825.88
64.8979	854.74
64.9124	876.21
64.9268	863.91
64.9413	901.07
64.9557	933.62
64.9701	944.06
64.9846	1036.32
64.9990	1085.81
65.0135	1233.30
65.0279	1378.45
65.0423	1657.42
65.0568	2015.79
65.0712	2524.90
65.0857	3299.24
65.1001	4210.03
65.1145	5757.89
65.1290	7769.76
65.1434	9282.19
65.1579	10662.40
65.1723	11442.65
65.1867	11184.77
65.2012	9877.48
65.2156	8412.42
65.2301	6656.00
65.2445	5278.19
65.2589	4394.71
65.2734	4033.32
65.2878	4134.83
65.3023	4750.34
65.3167	5419.05
65.3311	6290.82
65.3456	6785.93
65.3600	6697.92
65.3745	6337.72
65.3889	5353.66
65.4033	4236.90
65.4178	3405.65
65.4322	2739.02
65.4467	1998.53
65.4611	1715.94
65.4755	1523.29
65.4900	1267.09
65.5044	1155.24
65.5189	1073.95
65.5333	962.91
65.5477	885.50
65.5622	892.34
65.5766	822.93
65.5911	776.63
65.6055	782.98
65.6199	755.49
65.6344	771.82
65.6488	727.32
65.6633	734.01
65.6777	730.86
65.6921	700.30
65.7066	734.29
65.7210	730.17
65.7355	699.17
65.7499	681.11
65.7643	664.77
65.7788	663.32
65.7932	666.64
65.8077	677.72
65.8221	661.47
65.8365	658.48
65.8510	654.48
65.8654	651.07
65.8799	667.14
65.8943	661.64
65.9087	682.01
65.9232	638.78
65.9376	616.26
65.9521	589.81
65.9665	616.44
65.9809	611.72
65.9954	626.80
66.0098	613.42
66.0243	598.23
66.0387	598.46
66.0531	630.70
66.0676	655.15
66.0820	638.14
66.0965	645.57
66.1109	655.47
66.1253	633.73
66.1398	604.28
66.1542	612.34
66.1687	615.99
66.1831	617.21
66.1975	625.48
66.2120	638.06
66.2264	619.64
66.2409	616.17
66.2553	602.00
66.2697	571.67
66.2842	587.67
66.2986	593.00
66.3131	585.88
66.3275	592.97
66.3419	607.33
66.3564	633.21
66.3708	628.63
66.3853	622.87
66.3997	591.70
66.4141	577.62
66.4286	615.84
66.4430	560.90
66.4575	581.86
66.4719	599.01
66.4863	560.10
66.5008	585.55
66.5152	591.61
66.5297	623.62
66.5441	620.67
66.5585	581.43
66.5730	565.19
66.5874	586.17
66.6019	598.34
66.6163	604.69
66.6307	608.06
66.6452	596.90
66.6596	587.85
66.6741	577.75
66.6885	590.87
66.7029	588.76
66.7174	623.31
66.7318	555.55
66.7463	545.61
66.7607	572.22
66.7751	576.44
66.7896	562.50
66.8040	579.52
66.8185	620.38
66.8329	607.25
66.8473	565.52
66.8618	585.50
66.8762	564.82
66.8907	562.97
66.9051	600.70
66.9195	558.90
66.9340	546.90
66.9484	597.97
66.9629	576.20
66.9773	591.03
66.9917	605.09
67.0062	582.66
67.0206	566.72
67.0351	568.25
67.0495	575.66
67.0639	578.69
67.0784	594.24
67.0928	588.15
67.1073	569.96
67.1217	576.16
67.1361	588.02
67.1506	573.47
67.1650	539.33
67.1795	588.56
67.1939	585.16
67.2083	596.06
67.2228	557.71
67.2372	568.35
67.2517	586.37
67.2661	560.68
67.2805	587.77
67.2950	544.06
67.3094	589.32
67.3239	576.69
67.3383	576.42
67.3527	616.55
67.3672	588.56
67.3816	573.03
67.3961	551.91
67.4105	545.83
67.4250	609.35
67.4394	600.19
67.4538	571.79
67.4683	564.71
67.4827	591.51
67.4972	608.69
67.5116	603.95
67.5260	599.82
67.5405	571.10
67.5549	569.51
67.5694	559.64
67.5838	553.55
67.5982	585.23
67.6127	573.24
67.6271	588.59
67.6416	556.26
67.6560	606.43
67.6704	582.45
67.6849	553.76
67.6993	574.24
67.7138	604.39
67.7282	576.80
67.7426	556.76
67.7571	573.87
67.7715	561.38
67.7860	542.26
67.8004	575.40
67.8148	597.80
67.8293	579.37
67.8437	566.85
67.8582	582.19
67.8726	598.56
67.8870	585.83
67.9015	603.49
67.9159	553.17
67.9304	583.04
67.9448	583.42
67.9592	539.61
67.9737	565.40
67.9881	555.81
68.0026	580.79
68.0170	583.75
68.0314	621.04
68.0459	616.43
68.0603	575.49
68.0748	583.62
68.0892	578.46
68.1036	583.60
68.1181	569.16
68.1325	572.42
68.1470	559.68
68.1614	588.41
68.1758	549.93
68.1903	573.62
68.2047	522.97
68.2192	513.05
68.2336	559.14
68.2480	579.07
68.2625	555.09
68.2769	574.26
68.2914	594.26
68.3058	561.30
68.3202	562.75
68.3347	585.30
68.3491	531.60
68.3636	570.74
68.3780	555.95
68.3924	556.90
68.4069	560.32
68.4213	536.37
68.4358	549.79
68.4502	569.81
68.4646	565.46
68.4791	576.71
68.4935	555.36
68.5080	558.31
68.5224	581.04
68.5368	555.42
68.5513	526.37
68.5657	528.78
68.5802	572.11
68.5946	564.60
68.6090	581.06
68.6235	576.36
68.6379	534.17
68.6524	540.72
68.6668	607.83
68.6812	578.29
68.6957	537.72
68.7101	610.02
68.7246	562.59
68.7390	563.30
68.7534	558.47
68.7679	552.40
68.7823	571.61
68.7968	599.07
68.8112	630.02
68.8256	555.41
68.8401	562.64
68.8545	575.94
68.8690	593.47
68.8834	561.06
68.8978	573.14
68.9123	601.45
68.9267	563.02
68.9412	567.06
68.9556	597.74
68.9700	574.86
68.9845	531.29
68.9989	590.96
69.0134	603.49
69.0278	614.37
69.0422	537.42
69.0567	563.62
69.0711	610.38
69.0856	602.72
69.1000	531.76
69.1144	590.79
69.1289	559.21
69.1433	558.79
69.1578	525.19
69.1722	580.84
69.1866	584.53
69.2011	599.35
69.2155	598.77
69.2300	606.47
69.2444	590.44
69.2588	568.15
69.2733	560.75
69.2877	638.34
69.3022	555.95
69.3166	557.74
69.3310	569.19
69.3455	541.75
69.3599	578.44
69.3744	544.60
69.3888	563.57
69.4032	608.83
69.4177	580.37
69.4321	626.00
69.4466	605.41
69.4610	569.45
69.4754	590.73
69.4899	589.11
69.5043	572.72
69.5188	525.19
69.5332	539.14
69.5476	560.88
69.5621	598.40
69.5765	548.74
69.5910	542.46
69.6054	552.25
69.6198	599.31
69.6343	563.76
69.6487	575.52
69.6632	594.29
69.6776	562.53
69.6920	566.82
69.7065	631.23
69.7209	560.71
69.7354	508.26
69.7498	577.45
69.7642	552.20
69.7787	574.12
69.7931	551.76
69.8076	552.41
69.8220	577.62
69.8364	563.11
69.8509	566.93
69.8653	551.37
69.8798	563.09
69.8942	583.56
69.9086	587.11
69.9231	611.11
69.9375	624.86
69.9520	587.21
69.9664	582.21
69.9808	587.72
69.9953	576.23
70.0097	518.80
70.0242	557.13
70.0386	583.17
70.0530	614.44
70.0675	586.70
70.0819	590.65
70.0964	600.74
70.1108	567.53
70.1252	582.30
70.1397	543.41
70.1541	573.29
70.1686	562.40
70.1830	539.38
70.1974	528.54
70.2119	581.20
70.2263	544.53
70.2408	563.59
70.2552	560.97
70.2696	564.22
70.2841	528.49
70.2985	575.48
70.3130	575.87
70.3274	585.59
70.3418	664.82
70.3563	590.77
70.3707	572.63
70.3852	593.00
70.3996	603.10
70.4140	611.03
70.4285	618.20
70.4429	596.56
70.4574	571.02
70.4718	621.34
70.4862	633.09
70.5007	597.71
70.5151	593.70
70.5296	552.00
70.5440	600.30
70.5584	563.77
70.5729	575.75
70.5873	553.23
70.6018	531.64
70.6162	598.64
70.6306	619.23
70.6451	581.86
70.6595	557.75
70.6740	550.66
70.6884	563.02
70.7028	522.14
70.7173	586.39
70.7317	599.26
70.7462	589.63
70.7606	601.24
70.7750	632.27
70.7895	548.13
70.8039	536.83
70.8184	547.51
70.8328	563.56
70.8472	533.52
70.8617	599.78
70.8761	544.81
70.8906	539.30
70.9050	544.68
70.9194	544.02
70.9339	586.11
70.9483	565.49
70.9628	558.87
70.9772	558.25
70.9916	593.80
71.0061	546.76
71.0205	520.97
71.0350	558.49
71.0494	561.05
71.0638	555.27
71.0783	546.02
71.0927	599.94
71.1072	639.25
71.1216	603.27
71.1361	570.14
71.1505	602.21
71.1649	596.20
71.1794	599.72
71.1938	603.67
71.2083	573.66
71.2227	526.54
71.2371	576.66
71.2516	598.14
71.2660	552.12
71.2805	559.76
71.2949	581.83
71.3093	603.52
71.3238	573.91
71.3382	545.46
71.3527	577.56
71.3671	552.52
71.3815	552.24
71.3960	550.19
71.4104	594.00
71.4249	630.65
71.4393	614.63
71.4537	597.65
71.4682	585.87
71.4826	575.21
71.4971	603.27
71.5115	567.31
71.5259	570.84
71.5404	558.60
71.5548	524.36
71.5693	550.72
71.5837	558.69
71.5981	528.14
71.6126	517.51
71.6270	570.14
71.6415	604.00
71.6559	616.34
71.6703	632.02
71.6848	626.55
71.6992	638.29
71.7137	605.39
71.7281	571.73
71.7425	563.24
71.7570	543.60
71.7714	516.55
71.7859	547.64
71.8003	601.55
71.8147	642.53
71.8292	585.24
71.8436	552.78
71.8581	656.02
71.8725	647.32
71.8869	518.38
71.9014	516.41
71.9158	592.12
71.9303	701.50
71.9447	691.72
71.9591	595.75
71.9736	607.91
71.9880	573.37
72.0025	513.45
72.0169	536.41
72.0313	578.50
72.0458	551.15
72.0602	590.63
72.0747	589.20
72.0891	605.88
72.1035	609.41
72.1180	534.20
72.1324	580.56
72.1469	645.35
72.1613	615.35
72.1757	610.53
72.1902	654.35
72.2046	717.41
72.2191	685.79
72.2335	586.20
72.2479	479.27
72.2624	523.09
72.2768	596.70
72.2913	550.91
72.3057	519.34
72.3201	558.20
72.3346	572.72
72.3490	555.14
72.3635	549.02
72.3779	574.06
72.3923	592.64
72.4068	595.46
72.4212	615.12
72.4357	682.27
72.4501	651.21
72.4645	574.85
72.4790	539.07
72.4934	514.18
72.5079	550.39
72.5223	574.68
72.5367	505.48
72.5512	526.85
72.5656	606.88
72.5801	581.03
72.5945	516.31
72.6089	427.18
72.6234	501.94
72.6378	565.02
72.6523	561.99
72.6667	540.93
72.6811	563.42
72.6956	548.67
72.7100	510.05
72.7245	425.21
72.7389	482.19
72.7533	566.27
72.7678	513.29
72.7822	545.27
72.7967	561.45
72.8111	621.93
72.8255	629.19
72.8400	507.76
72.8544	492.92
72.8689	561.72
72.8833	573.54